Temperature (K)      Magnetization (mu_B / f.u.)
1.9965               NaN
1.9972               NaN
1.9975               NaN
1.9977               NaN
1.9979               NaN
1.9980               NaN
1.9984               NaN
1.9985               NaN
1.9987               NaN
1.9988               NaN
1.9990               NaN
1.9990               NaN
1.9992               NaN
1.9993               NaN
1.9993               NaN
1.9993               NaN
1.9995               NaN
1.9996               NaN
1.9997               NaN
1.9999               NaN
2.0000               NaN
2.0003               NaN
2.0004               NaN
2.0006               NaN
2.0186               NaN
2.0537               NaN
2.0903               NaN
2.1245               NaN
2.1568               NaN
2.1952               NaN
2.2382               NaN
2.2749               NaN
2.3011               NaN
2.3183               NaN
2.3286               NaN
2.3288               NaN
2.3331               NaN
2.3367               NaN
2.3369               NaN
2.3413               NaN
2.3430               NaN
2.3448               NaN
2.3457               NaN
2.3482               NaN
2.3494               NaN
2.3520               NaN
2.3547               NaN
2.3555               NaN
2.3571               NaN
2.3593               NaN
2.3602               NaN
2.3624               NaN
2.3631               NaN
2.3640               NaN
2.3676               NaN
2.3690               NaN
2.3711               NaN
2.3711               NaN
2.3771               NaN
2.3928               NaN
2.3995               NaN
2.4005               NaN
2.4032               NaN
2.4050               NaN
2.4074               NaN
2.4117               NaN
2.4126               NaN
2.4129               NaN
2.4133               NaN
2.4147               NaN
2.4153               NaN
2.4154               NaN
2.4157               NaN
2.4159               NaN
2.4159               NaN
2.4170               NaN
2.4179               NaN
2.4205               NaN
2.4218               NaN
2.4226               NaN
2.4250               NaN
2.4274               NaN
2.4275               NaN
2.4276               NaN
2.4280               NaN
2.4281               NaN
2.4281               NaN
2.4284               NaN
2.4288               NaN
2.4300               NaN
2.4301               NaN
2.4309               NaN
2.4315               NaN
2.4419               NaN
2.4582               NaN
2.4746               NaN
2.4829               NaN
2.5020               NaN
2.5501               NaN
2.6386               NaN
2.7899               NaN
3.0695               NaN
3.4878               NaN
4.0389               NaN
4.6578               NaN
5.2915               0.0948
5.9173               0.0901
6.3160               0.0893
6.5870               0.0895
6.7797               0.0857
7.3150               0.0810
8.3537               0.0824
8.8262               0.0801
9.0012               0.0785
9.2661               0.0792
9.5081               0.0780
9.6095               0.0767
9.6429               0.0758
10.6919              0.0813
12.1686              0.0779
13.7782              0.0672
14.4275              0.0680
15.2805              0.0661
15.8825              0.0673
17.3775              0.0662
19.1571              0.0593
19.7823              0.0586
20.4749              0.0572
21.1548              0.0567
21.8097              0.0552
22.4520              0.0539
23.1964              0.0523
23.7706              0.0519
25.2901              0.0465
27.1792              0.0479
27.9161              0.0483
28.6248              0.0466
29.2741              0.0471
29.9392              0.0467
30.6442              0.0463
31.3347              0.0453
32.0804              0.0455
32.7604              0.0459
33.4569              0.0435
34.1615              0.0434
34.7897              0.0436
35.4343              0.0429
36.1035              0.0418
36.7778              0.0417
37.5449              0.0417
38.2455              0.0419
38.9045              0.0408
39.5586              0.0410
40.2489              0.0414
40.9480              0.0403
41.6600              0.0396
42.3580              0.0391
43.0145              0.0377
43.6627              0.0375
44.3849              0.0377
45.0283              0.0364
45.6762              0.0360
46.4075              0.0361
47.1391              0.0357
47.8336              0.0345
48.4825              0.0338
49.2988              0.0342
49.9285              0.0334
51.4983              0.0322
53.2875              0.0326
53.9631              0.0314
54.6476              0.0314
55.3500              0.0316
56.1493              0.0318
56.6233              0.0304
58.2847              0.0297
60.2218              0.0294
60.8235              0.0294
61.4870              0.0296
62.1800              0.0285
62.8550              0.0292
63.5455              0.0287
64.2549              0.0281
64.9465              0.0279
65.6895              0.0279
66.4002              0.0276
67.1180              0.0269
67.7894              0.0279
68.4507              0.0270
69.0971              0.0270
69.7373              0.0267
70.4189              0.0262
71.0942              0.0259
71.7776              0.0258
72.4800              0.0260
73.1497              0.0260
73.8057              0.0258
74.4898              0.0262
75.1559              0.0251
75.8527              0.0251
76.6041              0.0249
77.2805              0.0249
78.0196              0.0249
78.6575              0.0250
79.2892              0.0251
79.9899              0.0246
80.6739              0.0240
81.3308              0.0238
82.0369              0.0239
82.7111              0.0234
83.2985              0.0235
83.9913              0.0225
84.7338              0.0226
85.4820              0.0231
86.1992              0.0232
86.9038              0.0232
87.5917              0.0235
88.1868              0.0235
88.7965              0.0227
89.4188              0.0227
90.1235              0.0227
90.7877              0.0228
91.5396              0.0219
92.2603              0.0230
92.9565              0.0215
93.5053              0.0226
94.2250              0.0226
94.9151              0.0228
95.6057              0.0234
96.3585              0.0235
97.1018              0.0235
97.7570              0.0224
98.3183              0.0224
98.9731              0.0223
99.6674              0.0218
100.3753             0.0209
101.0257             0.0208
101.6703             0.0204
102.3521             0.0201
102.9451             0.0201
103.5860             0.0201
104.2658             0.0203
104.9397             0.0203
105.6686             0.0205
106.3802             0.0191
107.0337             0.0192
107.6049             0.0196
108.2227             0.0197
108.8763             0.0198
109.6022             0.0209
110.2949             0.0209
110.9905             0.0200
111.6792             0.0200
112.3451             0.0198
113.0564             0.0194
113.7377             0.0194
114.4088             0.0195
115.0644             0.0186
115.6451             0.0187
116.2640             0.0188
116.9802             0.0188
117.6521             0.0182
118.3267             0.0183
118.9880             0.0185
119.6354             0.0187
120.3107             0.0185
120.9924             0.0184
121.6554             0.0184
122.3181             0.0184
123.0329             0.0184
123.7116             0.0190
124.3970             0.0192
125.0253             0.0191
125.8522             0.0190
126.4224             0.0189
127.9057             0.0183
129.7485             0.0182
130.3153             0.0186
131.0807             0.0187
131.7058             0.0190
132.3893             0.0190
133.1274             0.0183
133.8218             0.0182
134.4718             0.0182
135.1529             0.0182
135.8043             0.0178
136.4386             0.0179
137.1429             0.0179
137.8611             0.0181
138.5830             0.0182
139.2553             0.0181
139.8747             0.0175
140.4740             0.0175
141.0837             0.0175
141.7682             0.0176
142.4602             0.0174
143.1109             0.0174
143.7949             0.0171
144.4881             0.0170
145.1635             0.0170
145.8547             0.0165
146.5495             0.0166
147.2018             0.0168
147.8147             0.0168
148.4608             0.0168
149.1342             0.0168
149.8016             0.0158
150.4506             0.0165
151.1121             0.0166
151.7459             0.0167
152.4435             0.0158
153.1738             0.0159
153.8204             0.0157
154.4428             0.0161
155.1044             0.0155
155.8169             0.0155
156.4104             0.0156
157.2474             0.0156
157.9200             0.0157
158.5744             0.0155
159.2006             0.0155
159.8525             0.0154
160.5787             0.0146
161.2901             0.0146
162.0056             0.0145
162.6382             0.0148
163.2963             0.0147
163.9909             0.0144
164.6077             0.0144
165.2283             0.0144
165.8663             0.0144
166.5148             0.0144
167.1253             0.0141
167.7199             0.0141
168.4070             0.0140
169.1143             0.0139
169.8491             0.0140
170.5420             0.0136
171.2185             0.0136
171.8874             0.0136
172.5074             0.0135
173.1808             0.0137
173.9445             0.0136
174.6793             0.0132
175.2808             0.0132
175.8421             0.0133
176.4461             0.0134
177.0936             0.0134
177.7376             0.0134
178.4144             0.0132
179.1223             0.0129
179.8568             0.0129
180.7308             0.0136
181.5238             0.0137
182.2882             0.0138
182.9588             0.0134
183.5968             0.0134
184.2952             0.0135
185.0164             0.0136
185.8344             0.0136
186.5775             0.0135
187.3314             0.0130
188.1571             0.0130
188.9880             0.0131
189.8640             0.0134
190.7037             0.0134
191.5351             0.0133
192.3590             0.0131
193.1368             0.0131
193.9504             0.0132
194.8559             0.0136
195.6534             0.0137
196.5221             0.0137
197.3301             0.0134
198.2056             0.0135
199.0829             0.0134
199.8722             0.0133
200.6696             0.0133
201.5686             0.0133
202.3291             0.0127
203.0139             0.0130
203.6848             0.0131
204.3807             0.0131
205.1050             0.0131
205.8166             0.0132
206.4320             0.0138
207.0112             0.0141
207.5759             0.0139
208.1098             0.0139
208.6096             0.0133
209.1007             0.0133
209.5637             0.0134
209.9350             0.0140
210.2542             0.0140
210.5572             0.0139
210.8271             0.0139
211.0790             0.0137
211.2883             0.0140
211.4901             0.0134
211.6680             0.0135
211.8192             0.0135
211.9404             0.0137
212.0286             0.0137
212.1486             0.0142
212.2383             0.0145
212.3142             0.0145
212.3724             0.0147
212.4266             0.0140
212.4818             0.0138
212.5238             0.0138
212.5535             0.0141
212.5816             0.0144
212.6131             0.0144
212.6390             0.0147
212.6541             0.0147
212.6639             0.0146
212.6681             0.0146
212.6705             0.0146
212.6713             0.0147
212.6730             0.0145
212.6833             0.0144
212.6945             0.0140
212.7045             0.0140
212.7152             0.0137
212.7259             0.0137
212.7366             0.0135
212.7479             0.0135
212.7584             0.0136
212.7689             0.0141
212.7788             0.0141
212.7893             0.0141
212.7995             0.0141
212.8097             0.0141
212.8197             0.0139
212.8292             0.0139
212.8394             0.0139
212.8499             0.0139
212.8605             0.0141
212.8708             0.0141
212.8809             0.0141
212.8915             0.0141
212.9024             0.0141
212.9130             0.0142
212.9233             0.0142
212.9348             0.0138
212.9450             0.0136
212.9548             0.0136
212.9643             0.0137
212.9744             0.0138
212.9859             0.0139
212.9960             0.0139
213.0056             0.0138
213.0168             0.0137
213.0267             0.0137
213.0368             0.0142
213.0479             0.0142
213.0585             0.0136
213.0690             0.0136
213.0793             0.0137
213.0897             0.0137
213.1006             0.0135
213.1119             0.0135
213.1234             0.0136
213.1338             0.0136
213.1440             0.0140
213.1553             0.0134
213.1657             0.0140
213.1756             0.0132
213.1861             0.0137
213.1967             0.0137
213.2077             0.0137
213.2194             0.0140
213.2297             0.0142
213.2391             0.0142
213.2490             0.0141
213.2592             0.0140
213.2695             0.0137
213.2808             0.0137
213.2924             0.0141
213.3026             0.0141
213.3135             0.0142
213.3244             0.0142
213.3340             0.0142
213.3445             0.0137
213.3563             0.0137
213.3662             0.0136
213.3762             0.0137
213.3868             0.0139
213.3977             0.0139
213.4084             0.0139
213.4192             0.0139
213.4296             0.0140
213.4408             0.0140
213.4509             0.0142
213.4619             0.0141
213.4729             0.0141
213.4837             0.0139
213.4941             0.0138
213.5047             0.0138
213.5153             0.0135
213.5263             0.0135
213.5375             0.0135
213.5495             0.0137
213.5611             0.0136
213.5726             0.0138
213.5825             0.0136
213.5924             0.0136
213.6029             0.0136
213.6134             0.0136
213.6241             0.0137
213.6351             0.0137
213.6466             0.0138
213.6584             0.0136
213.6689             0.0136
213.6796             0.0136
213.6910             0.0137
213.7011             0.0139
213.7106             0.0140
213.7218             0.0140
213.7332             0.0137
213.7444             0.0137
213.7537             0.0137
213.7636             0.0137
213.7752             0.0137
213.7868             0.0137
213.7974             0.0135
213.8086             0.0135
213.8198             0.0136
213.8305             0.0136
213.8413             0.0134
213.8535             0.0134
213.8645             0.0137
213.8749             0.0137
213.8852             0.0134
213.8954             0.0134
213.9064             0.0134
213.9170             0.0135
213.9276             0.0137
213.9384             0.0137
213.9485             0.0137
213.9593             0.0136
213.9706             0.0136
213.9815             0.0136
213.9927             0.0136
214.0044             0.0136
214.0153             0.0135
214.0260             0.0134
214.0374             0.0134
214.0489             0.0135
214.0595             0.0135
214.0697             0.0135
214.0809             0.0135
214.0928             0.0134
214.1040             0.0134
214.1143             0.0134
214.1243             0.0135
214.1371             0.0135
214.1498             0.0136
214.1610             0.0139
214.1715             0.0139
214.1813             0.0141
214.1922             0.0137
214.2042             0.0136
214.2149             0.0135
214.2258             0.0136
214.2368             0.0135
214.2471             0.0134
214.2578             0.0134
214.2692             0.0135
214.2802             0.0137
214.2895             0.0136
214.3000             0.0136
214.3111             0.0136
214.3224             0.0137
214.3343             0.0137
214.3460             0.0133
214.3583             0.0133
214.3689             0.0138
214.3799             0.0138
214.3916             0.0135
214.4029             0.0135
214.4141             0.0135
214.4236             0.0139
214.4340             0.0135
214.4452             0.0139
214.4571             0.0136
214.4682             0.0137
214.4779             0.0136
214.4878             0.0136
214.4991             0.0136
214.5108             0.0136
214.5221             0.0132
214.5330             0.0132
214.5438             0.0135
214.5546             0.0135
214.5655             0.0134
214.5781             0.0134
214.5908             0.0134
214.6018             0.0132
214.6120             0.0133
214.6232             0.0133
214.6345             0.0139
214.6463             0.0139
214.6577             0.0134
214.6698             0.0134
214.6815             0.0134
214.6929             0.0133
214.7040             0.0131
214.7140             0.0131
214.7235             0.0131
214.7343             0.0131
214.7457             0.0135
214.7579             0.0135
214.7699             0.0132
214.7800             0.0132
214.7909             0.0132
214.8029             0.0129
214.8148             0.0129
214.8256             0.0133
214.8366             0.0133
214.8482             0.0131
214.8588             0.0131
214.8690             0.0134
214.8803             0.0134
214.8918             0.0142
214.9033             0.0133
214.9137             0.0142
214.9254             0.0131
214.9367             0.0133
214.9480             0.0134
214.9598             0.0135
214.9714             0.0136
214.9833             0.0135
214.9950             0.0136
215.0061             0.0132
215.0173             0.0135
215.0289             0.0132
215.0402             0.0133
215.0523             0.0133
215.0642             0.0137
215.0762             0.0137
215.0866             0.0133
215.0971             0.0133
215.1082             0.0133
215.1200             0.0139
215.1315             0.0139
215.1426             0.0139
215.1538             0.0133
215.1657             0.0135
215.1775             0.0132
215.1885             0.0132
215.1998             0.0132
215.2124             0.0132
215.2243             0.0132
215.2356             0.0132
215.2485             0.0131
215.2602             0.0131
215.2705             0.0130
215.2818             0.0132
215.2924             0.0132
215.3026             0.0132
215.3134             0.0135
215.3252             0.0128
215.3375             0.0128
215.3505             0.0128
215.3621             0.0127
215.3727             0.0131
215.3846             0.0127
215.3974             0.0131
215.4100             0.0128
215.4215             0.0131
215.4332             0.0131
215.4446             0.0133
215.4550             0.0133
215.4671             0.0131
215.4784             0.0131
215.4896             0.0131
215.5021             0.0131
215.5135             0.0131
215.5242             0.0132
215.5348             0.0135
215.5457             0.0135
215.5575             0.0130
215.5685             0.0130
215.5791             0.0133
215.5905             0.0135
215.6031             0.0135
215.6155             0.0135
215.6269             0.0133
215.6386             0.0133
215.6515             0.0128
215.6638             0.0128
215.6745             0.0128
215.6857             0.0130
215.6979             0.0134
215.7099             0.0130
215.7213             0.0133
215.7328             0.0130
215.7447             0.0133
215.7559             0.0133
215.7666             0.0133
215.7785             0.0127
215.7899             0.0127
215.8007             0.0133
215.8120             0.0133
215.8239             0.0133
215.8361             0.0134
215.8479             0.0134
215.8610             0.0133
215.8734             0.0131
215.8843             0.0133
215.8960             0.0133
215.9084             0.0135
215.9200             0.0136
215.9307             0.0136
215.9424             0.0132
215.9548             0.0132
215.9668             0.0132
215.9790             0.0130
215.9904             0.0132
216.0017             0.0127
216.0147             0.0130
216.0271             0.0130
216.0387             0.0132
216.0508             0.0134
216.0631             0.0134
216.0750             0.0136
216.0857             0.0134
216.0967             0.0131
216.1083             0.0131
216.1201             0.0133
216.1310             0.0133
216.1436             0.0127
216.1559             0.0126
216.1679             0.0126
216.1799             0.0125
216.1908             0.0126
216.2021             0.0129
216.2146             0.0129
216.2266             0.0129
216.2380             0.0134
216.2492             0.0134
216.2611             0.0131
216.2742             0.0131
216.2868             0.0132
216.2991             0.0133
216.3110             0.0132
216.3222             0.0126
216.3337             0.0126
216.3450             0.0130
216.3572             0.0130
216.3700             0.0130
216.3823             0.0130
216.3940             0.0131
216.4046             0.0131
216.4156             0.0131
216.4284             0.0128
216.4407             0.0127
216.4530             0.0127
216.4647             0.0129
216.4765             0.0130
216.4882             0.0130
216.4998             0.0130
216.5114             0.0129
216.5246             0.0129
216.5373             0.0132
216.5500             0.0132
216.5633             0.0132
216.5766             0.0134
216.5891             0.0134
216.6009             0.0132
216.6121             0.0132
216.6232             0.0132
216.6341             0.0130
216.6457             0.0130
216.6582             0.0130
216.6707             0.0134
216.6836             0.0127
216.6967             0.0129
216.7092             0.0129
216.7218             0.0129
216.7348             0.0133
216.7474             0.0129
216.7602             0.0125
216.7727             0.0125
216.7845             0.0127
216.7967             0.0127
216.8082             0.0127
216.8203             0.0129
216.8335             0.0129
216.8449             0.0127
216.8562             0.0127
216.8695             0.0127
216.8833             0.0130
216.8959             0.0129
216.9069             0.0130
216.9178             0.0130
216.9288             0.0130
216.9404             0.0130
216.9520             0.0131
216.9632             0.0134
216.9749             0.0133
216.9866             0.0133
216.9993             0.0124
217.0126             0.0124
217.0252             0.0125
217.0380             0.0127
217.0509             0.0127
217.0629             0.0127
217.0734             0.0127
217.0847             0.0129
217.0972             0.0129
217.1100             0.0129
217.1232             0.0129
217.1358             0.0129
217.1481             0.0129
217.1596             0.0131
217.1711             0.0127
217.1836             0.0127
217.1960             0.0126
217.2094             0.0124
217.2217             0.0121
217.2332             0.0121
217.2449             0.0121
217.2559             0.0121
217.2676             0.0121
217.2807             0.0124
217.2932             0.0124
217.3056             0.0124
217.3181             0.0125
217.3312             0.0124
217.3443             0.0126
217.3558             0.0126
217.3672             0.0126
217.3799             0.0127
217.3916             0.0127
217.4026             0.0128
217.4141             0.0127
217.4281             0.0127
217.4415             0.0126
217.4534             0.0119
217.4660             0.0123
217.4788             0.0123
217.4913             0.0128
217.5046             0.0128
217.5176             0.0129
217.5297             0.0126
217.5424             0.0125
217.5533             0.0125
217.5655             0.0128
217.5800             0.0128
217.5930             0.0124
217.6055             0.0124
217.6177             0.0124
217.6291             0.0121
217.6417             0.0121
217.6551             0.0121
217.6668             0.0124
217.6783             0.0124
217.6906             0.0121
217.7024             0.0121
217.7151             0.0124
217.7276             0.0124
217.7406             0.0124
217.7540             0.0125
217.7668             0.0126
217.7794             0.0125
217.7924             0.0123
217.8066             0.0121
217.8185             0.0121
217.8304             0.0121
217.8422             0.0122
217.8544             0.0123
217.8666             0.0124
217.8795             0.0124
217.8921             0.0124
217.9050             0.0120
217.9168             0.0120
217.9286             0.0116
217.9423             0.0116
217.9553             0.0116
217.9677             0.0119
217.9802             0.0124
217.9926             0.0120
218.0061             0.0124
218.0182             0.0122
218.0298             0.0122
218.0427             0.0122
218.0557             0.0122
218.0684             0.0117
218.0812             0.0117
218.0941             0.0119
218.1076             0.0124
218.1196             0.0124
218.1312             0.0122
218.1437             0.0122
218.1558             0.0122
218.1681             0.0123
218.1807             0.0117
218.1930             0.0123
218.2054             0.0121
218.2187             0.0121
218.2323             0.0119
218.2459             0.0119
218.2599             0.0122
218.2727             0.0124
218.2851             0.0125
218.2984             0.0125
218.3127             0.0124
218.3251             0.0121
218.3377             0.0122
218.3513             0.0121
218.3639             0.0120
218.3756             0.0120
218.3886             0.0123
218.4013             0.0123
218.4155             0.0124
218.4281             0.0120
218.4395             0.0118
218.4507             0.0118
218.4623             0.0121
218.4746             0.0121
218.4876             0.0121
218.5007             0.0122
218.5138             0.0123
218.5267             0.0122
218.5397             0.0122
218.5523             0.0119
218.5653             0.0120
218.5777             0.0120
218.5906             0.0121
218.6042             0.0121
218.6185             0.0121
218.6306             0.0120
218.6434             0.0120
218.6567             0.0120
218.6701             0.0117
218.6830             0.0117
218.6960             0.0123
218.7096             0.0123
218.7229             0.0122
218.7367             0.0118
218.7512             0.0118
218.7634             0.0123
218.7762             0.0123
218.7891             0.0122
218.8009             0.0118
218.8133             0.0120
218.8272             0.0120
218.8405             0.0120
218.8529             0.0120
218.8661             0.0120
218.8790             0.0120
218.8910             0.0117
218.9038             0.0116
218.9170             0.0116
218.9302             0.0114
218.9436             0.0117
218.9571             0.0121
218.9707             0.0122
218.9829             0.0122
218.9946             0.0119
219.0076             0.0117
219.0206             0.0118
219.0336             0.0118
219.0471             0.0119
219.0605             0.0119
219.0735             0.0120
219.0867             0.0123
219.1000             0.0125
219.1136             0.0123
219.1259             0.0126
219.1375             0.0123
219.1502             0.0123
219.1647             0.0115
219.1778             0.0115
219.1900             0.0118
219.2031             0.0118
219.2168             0.0117
219.2308             0.0117
219.2453             0.0120
219.2582             0.0120
219.2708             0.0120
219.2841             0.0121
219.2981             0.0121
219.3117             0.0121
219.3247             0.0121
219.3367             0.0122
219.3505             0.0122
219.3639             0.0122
219.3757             0.0120
219.3885             0.0119
219.4025             0.0118
219.4158             0.0118
219.4292             0.0118
219.4431             0.0115
219.4575             0.0115
219.4699             0.0115
219.4828             0.0116
219.4971             0.0120
219.5104             0.0121
219.5236             0.0119
219.5369             0.0119
219.5508             0.0117
219.5650             0.0120
219.5773             0.0117
219.5903             0.0120
219.6024             0.0118
219.6153             0.0118
219.6296             0.0116
219.6441             0.0116
219.6572             0.0121
219.6690             0.0121
219.6829             0.0121
219.6967             0.0116
219.7095             0.0116
219.7234             0.0117
219.7362             0.0117
219.7493             0.0117
219.7636             0.0116
219.7785             0.0124
219.7920             0.0119
219.8066             0.0119
219.8206             0.0119
219.8334             0.0119
219.8458             0.0119
219.8581             0.0119
219.8709             0.0114
219.8845             0.0114
219.8974             0.0119
219.9122             0.0119
219.9262             0.0116
219.9387             0.0116
219.9523             0.0116
219.9660             0.0117
219.9793             0.0117
219.9928             0.0117
220.0065             0.0117
220.0210             0.0114
220.0338             0.0119
220.0465             0.0119
220.0609             0.0119
220.0752             0.0119
220.0894             0.0122
220.1031             0.0123
220.1156             0.0123
220.1291             0.0121
220.1434             0.0116
220.1576             0.0121
220.1719             0.0119
220.1860             0.0121
220.1996             0.0119
220.2142             0.0116
220.2280             0.0115
220.2412             0.0113
220.2548             0.0113
220.2682             0.0114
220.2806             0.0122
220.2937             0.0122
220.3085             0.0119
220.3239             0.0117
220.3368             0.0117
220.3491             0.0117
220.3618             0.0117
220.3749             0.0118
220.3888             0.0118
220.4019             0.0118
220.4156             0.0118
220.4303             0.0112
220.4439             0.0112
220.4564             0.0120
220.4698             0.0120
220.4837             0.0120
220.4975             0.0116
220.5124             0.0116
220.5272             0.0118
220.5411             0.0118
220.5554             0.0117
220.5696             0.0116
220.5833             0.0114
220.5981             0.0114
220.6112             0.0117
220.6253             0.0117
220.6385             0.0121
220.6517             0.0119
220.6664             0.0119
220.6801             0.0119
220.6924             0.0120
220.7051             0.0121
220.7187             0.0121
220.7328             0.0121
220.7472             0.0120
220.7612             0.0122
220.7754             0.0120
220.7899             0.0114
220.8036             0.0114
220.8162             0.0122
220.8301             0.0122
220.8438             0.0119
220.8574             0.0119
220.8717             0.0119
220.8859             0.0120
220.9002             0.0119
220.9141             0.0119
220.9290             0.0115
220.9435             0.0115
220.9555             0.0116
220.9675             0.0117
220.9810             0.0118
220.9939             0.0117
221.0066             0.0116
221.0220             0.0116
221.0356             0.0122
221.0486             0.0122
221.0638             0.0122
221.0789             0.0119
221.0929             0.0119
221.1077             0.0116
221.1232             0.0116
221.1362             0.0119
221.1489             0.0122
221.1636             0.0120
221.1782             0.0123
221.1921             0.0120
221.2054             0.0123
221.2194             0.0120
221.2340             0.0120
221.2481             0.0120
221.2609             0.0120
221.2743             0.0121
221.2884             0.0121
221.3032             0.0121
221.3178             0.0116
221.3322             0.0116
221.3464             0.0120
221.3607             0.0120
221.3768             0.0120
221.3913             0.0116
221.4039             0.0116
221.4187             0.0116
221.4338             0.0113
221.4479             0.0118
221.4614             0.0120
221.4742             0.0120
221.4889             0.0115
221.5031             0.0115
221.5158             0.0118
221.5295             0.0118
221.5442             0.0118
221.5577             0.0119
221.5718             0.0119
221.5861             0.0115
221.6007             0.0115
221.6141             0.0115
221.6289             0.0116
221.6437             0.0115
221.6588             0.0116
221.6739             0.0120
221.6883             0.0120
221.7029             0.0117
221.7185             0.0115
221.7334             0.0114
221.7471             0.0114
221.7604             0.0115
221.7748             0.0117
221.7896             0.0117
221.8050             0.0115
221.8189             0.0115
221.8329             0.0115
221.8483             0.0118
221.8626             0.0120
221.8757             0.0120
221.8889             0.0112
221.9028             0.0112
221.9179             0.0112
221.9316             0.0113
221.9463             0.0114
221.9606             0.0114
221.9743             0.0111
221.9889             0.0111
222.0032             0.0123
222.0175             0.0123
222.0317             0.0120
222.0454             0.0118
222.0600             0.0119
222.0741             0.0118
222.0892             0.0119
222.1031             0.0119
222.1177             0.0119
222.1322             0.0110
222.1459             0.0110
222.1599             0.0115
222.1738             0.0118
222.1878             0.0116
222.2030             0.0117
222.2183             0.0116
222.2341             0.0116
222.2491             0.0116
222.2632             0.0121
222.2760             0.0121
222.2900             0.0108
222.3050             0.0108
222.3205             0.0114
222.3353             0.0116
222.3502             0.0116
222.3644             0.0118
222.3813             0.0115
222.3968             0.0115
222.4101             0.0115
222.4229             0.0114
222.4367             0.0115
222.4514             0.0116
222.4660             0.0116
222.4807             0.0115
222.4953             0.0115
222.5096             0.0117
222.5241             0.0117
222.5385             0.0115
222.5534             0.0115
222.5686             0.0115
222.5838             0.0118
222.5986             0.0114
222.6143             0.0114
222.6298             0.0114
222.6457             0.0114
222.6610             0.0114
222.6756             0.0114
222.6901             0.0114
222.7028             0.0114
222.7152             0.0114
222.7295             0.0115
222.7438             0.0116
222.7587             0.0116
222.7722             0.0115
222.7860             0.0115
222.8019             0.0114
222.8173             0.0113
222.8322             0.0111
222.8473             0.0111
222.8620             0.0111
222.8772             0.0111
222.8927             0.0110
222.9088             0.0110
222.9261             0.0114
222.9405             0.0116
222.9531             0.0116
222.9677             0.0116
222.9816             0.0113
222.9959             0.0111
223.0117             0.0111
223.0265             0.0115
223.0407             0.0115
223.0569             0.0110
223.0720             0.0109
223.0852             0.0109
223.0999             0.0115
223.1171             0.0115
223.1332             0.0111
223.1471             0.0111
223.1618             0.0112
223.1767             0.0113
223.1921             0.0114
223.2078             0.0114
223.2227             0.0114
223.2377             0.0114
223.2528             0.0110
223.2666             0.0110
223.2797             0.0114
223.2944             0.0118
223.3103             0.0118
223.3249             0.0113
223.3399             0.0113
223.3550             0.0111
223.3702             0.0113
223.3847             0.0109
223.3991             0.0108
223.4146             0.0108
223.4298             0.0115
223.4462             0.0115
223.4612             0.0112
223.4751             0.0112
223.4900             0.0117
223.5061             0.0117
223.5212             0.0114
223.5378             0.0114
223.5525             0.0114
223.5661             0.0115
223.5820             0.0115
223.5972             0.0110
223.6113             0.0110
223.6263             0.0107
223.6414             0.0111
223.6572             0.0114
223.6728             0.0114
223.6877             0.0112
223.7002             0.0112
223.7150             0.0112
223.7303             0.0111
223.7459             0.0111
223.7618             0.0111
223.7772             0.0109
223.7910             0.0108
223.8055             0.0109
223.8211             0.0113
223.8356             0.0115
223.8503             0.0116
223.8657             0.0115
223.8813             0.0117
223.8980             0.0110
223.9144             0.0109
223.9294             0.0109
223.9454             0.0110
223.9615             0.0111
223.9762             0.0112
223.9908             0.0115
224.0069             0.0115
224.0226             0.0114
224.0389             0.0110
224.0544             0.0110
224.0682             0.0110
224.0827             0.0112
224.0967             0.0107
224.1129             0.0114
224.1287             0.0109
224.1417             0.0110
224.1561             0.0110
224.1720             0.0110
224.1872             0.0109
224.2032             0.0109
224.2193             0.0109
224.2344             0.0112
224.2484             0.0109
224.2652             0.0112
224.2819             0.0110
224.2971             0.0110
224.3132             0.0109
224.3279             0.0109
224.3428             0.0109
224.3587             0.0109
224.3731             0.0116
224.3876             0.0113
224.4032             0.0113
224.4184             0.0112
224.4334             0.0109
224.4494             0.0111
224.4638             0.0109
224.4787             0.0111
224.4950             0.0112
224.5105             0.0112
224.5252             0.0109
224.5408             0.0109
224.5562             0.0113
224.5721             0.0113
224.5872             0.0110
224.6021             0.0106
224.6177             0.0110
224.6355             0.0109
224.6527             0.0113
224.6676             0.0113
224.6842             0.0113
224.7002             0.0111
224.7139             0.0111
224.7274             0.0114
224.7417             0.0115
224.7569             0.0114
224.7732             0.0110
224.7892             0.0110
224.8049             0.0112
224.8209             0.0112
224.8373             0.0112
224.8539             0.0111
224.8687             0.0113
224.8841             0.0111
224.9008             0.0112
224.9165             0.0111
224.9329             0.0111
224.9502             0.0110
224.9662             0.0110
224.9813             0.0110
224.9968             0.0110
225.0117             0.0110
225.0277             0.0111
225.0433             0.0111
225.0592             0.0107
225.0745             0.0107
225.0894             0.0112
225.1061             0.0112
225.1223             0.0111
225.1371             0.0111
225.1534             0.0107
225.1694             0.0111
225.1851             0.0106
225.2017             0.0112
225.2190             0.0103
225.2327             0.0105
225.2463             0.0105
225.2625             0.0109
225.2786             0.0111
225.2939             0.0111
225.3117             0.0110
225.3286             0.0104
225.3426             0.0104
225.3569             0.0104
225.3723             0.0107
225.3896             0.0112
225.4057             0.0113
225.4212             0.0108
225.4376             0.0108
225.4548             0.0108
225.4710             0.0109
225.4865             0.0109
225.5009             0.0109
225.5172             0.0107
225.5330             0.0107
225.5483             0.0107
225.5655             0.0113
225.5822             0.0111
225.5990             0.0111
225.6154             0.0104
225.6306             0.0104
225.6469             0.0104
225.6648             0.0104
225.6797             0.0107
225.6932             0.0109
225.7092             0.0109
225.7256             0.0111
225.7406             0.0108
225.7571             0.0111
225.7724             0.0104
225.7876             0.0103
225.8036             0.0102
225.8205             0.0103
225.8378             0.0105
225.8534             0.0107
225.8686             0.0107
225.8840             0.0107
225.9001             0.0107
225.9157             0.0111
225.9313             0.0107
225.9483             0.0105
225.9635             0.0105
225.9781             0.0105
225.9942             0.0105
226.0101             0.0105
226.0243             0.0107
226.0399             0.0108
226.0570             0.0108
226.0731             0.0108
226.0895             0.0112
226.1058             0.0112
226.1213             0.0104
226.1369             0.0104
226.1538             0.0104
226.1705             0.0107
226.1868             0.0107
226.2036             0.0107
226.2201             0.0103
226.2352             0.0103
226.2493             0.0104
226.2656             0.0106
226.2825             0.0106
226.2993             0.0109
226.3166             0.0104
226.3339             0.0107
226.3498             0.0106
226.3657             0.0107
226.3824             0.0108
226.3990             0.0108
226.4158             0.0111
226.4330             0.0111
226.4493             0.0108
226.4647             0.0108
226.4828             0.0108
226.4995             0.0108
226.5160             0.0111
226.5318             0.0109
226.5471             0.0111
226.5633             0.0113
226.5796             0.0113
226.5963             0.0109
226.6131             0.0108
226.6295             0.0106
226.6460             0.0106
226.6625             0.0106
226.6789             0.0109
226.6959             0.0111
226.7128             0.0111
226.7295             0.0111
226.7459             0.0111
226.7610             0.0108
226.7772             0.0108
226.7923             0.0106
226.8064             0.0106
226.8217             0.0108
226.8396             0.0109
226.8572             0.0109
226.8732             0.0109
226.8891             0.0107
226.9051             0.0108
226.9221             0.0107
226.9399             0.0108
226.9570             0.0106
226.9736             0.0108
226.9908             0.0107
227.0074             0.0108
227.0239             0.0111
227.0426             0.0111
227.0605             0.0114
227.0756             0.0111
227.0935             0.0111
227.1093             0.0105
227.1239             0.0105
227.1399             0.0105
227.1561             0.0107
227.1738             0.0107
227.1897             0.0111
227.2065             0.0110
227.2241             0.0111
227.2408             0.0111
227.2578             0.0111
227.2739             0.0106
227.2898             0.0106
227.3056             0.0106
227.3226             0.0108
227.3421             0.0108
227.3591             0.0107
227.3748             0.0107
227.3938             0.0107
227.4123             0.0109
227.4290             0.0105
227.4457             0.0105
227.4619             0.0101
227.4778             0.0101
227.4928             0.0115
227.5081             0.0115
227.5242             0.0112
227.5418             0.0109
227.5586             0.0108
227.5740             0.0107
227.5908             0.0108
227.6099             0.0106
227.6275             0.0109
227.6433             0.0109
227.6601             0.0110
227.6758             0.0110
227.6925             0.0108
227.7106             0.0108
227.7259             0.0106
227.7412             0.0114
227.7585             0.0109
227.7767             0.0111
227.7945             0.0109
227.8118             0.0111
227.8292             0.0110
227.8460             0.0110
227.8615             0.0110
227.8790             0.0108
227.8968             0.0107
227.9143             0.0107
227.9333             0.0107
227.9492             0.0107
227.9660             0.0106
227.9846             0.0107
228.0015             0.0107
228.0183             0.0110
228.0370             0.0110
228.0530             0.0110
228.0682             0.0110
228.0846             0.0113
228.1005             0.0113
228.1170             0.0115
228.1339             0.0106
228.1516             0.0106
228.1683             0.0106
228.1848             0.0110
228.2027             0.0110
228.2206             0.0114
228.2368             0.0112
228.2544             0.0112
228.2724             0.0112
228.2901             0.0108
228.3068             0.0108
228.3242             0.0108
228.3410             0.0110
228.3576             0.0110
228.3738             0.0109
228.3898             0.0109
228.4077             0.0109
228.4256             0.0105
228.4418             0.0105
228.4575             0.0105
228.4749             0.0102
228.4929             0.0102
228.5107             0.0105
228.5287             0.0108
228.5460             0.0108
228.5635             0.0107
228.5815             0.0107
228.5977             0.0108
228.6136             0.0109
228.6311             0.0110
228.6485             0.0109
228.6664             0.0108
228.6846             0.0106
228.7027             0.0106
228.7197             0.0106
228.7356             0.0104
228.7537             0.0104
228.7715             0.0107
228.7875             0.0110
228.8049             0.0107
228.8212             0.0109
228.8378             0.0104
228.8549             0.0104
228.8729             0.0104
228.8890             0.0106
228.9060             0.0109
228.9249             0.0109
228.9446             0.0109
228.9626             0.0108
228.9808             0.0108
228.9991             0.0106
229.0185             0.0107
229.0386             0.0107
229.0547             0.0107
229.0692             0.0108
229.0860             0.0108
229.1026             0.0110
229.1179             0.0107
229.1347             0.0111
229.1523             0.0107
229.1697             0.0105
229.1873             0.0104
229.2055             0.0104
229.2239             0.0102
229.2423             0.0100
229.2597             0.0100
229.2763             0.0103
229.2945             0.0105
229.3116             0.0105
229.3282             0.0105
229.3454             0.0109
229.3635             0.0109
229.3806             0.0112
229.3970             0.0105
229.4148             0.0103
229.4339             0.0103
229.4510             0.0105
229.4680             0.0106
229.4860             0.0105
229.5041             0.0105
229.5217             0.0104
229.5391             0.0103
229.5548             0.0104
229.5711             0.0104
229.5894             0.0108
229.6080             0.0108
229.6272             0.0105
229.6458             0.0102
229.6632             0.0100
229.6808             0.0100
229.6977             0.0100
229.7180             0.0106
229.7367             0.0106
229.7543             0.0106
229.7722             0.0109
229.7893             0.0107
229.8067             0.0107
229.8241             0.0107
229.8416             0.0105
229.8587             0.0105
229.8783             0.0103
229.8967             0.0102
229.9142             0.0102
229.9320             0.0110
229.9482             0.0110
229.9661             0.0107
229.9843             0.0107
230.0009             0.0111
230.0182             0.0111
230.0374             0.0099
230.0558             0.0099
230.0739             0.0108
230.0918             0.0108
230.1106             0.0106
230.1281             0.0106
230.1457             0.0104
230.1641             0.0103
230.1815             0.0099
230.1992             0.0103
230.2168             0.0107
230.2371             0.0110
230.2578             0.0110
230.2761             0.0105
230.2909             0.0104
230.3071             0.0104
230.3270             0.0098
230.3463             0.0097
230.3641             0.0097
230.3803             0.0100
230.3988             0.0100
230.4169             0.0100
230.4344             0.0101
230.4513             0.0101
230.4692             0.0104
230.4879             0.0103
230.5067             0.0103
230.5247             0.0103
230.5420             0.0103
230.5584             0.0103
230.5762             0.0104
230.5938             0.0104
230.6110             0.0104
230.6293             0.0099
230.6487             0.0099
230.6654             0.0108
230.6842             0.0108
230.7046             0.0108
230.7225             0.0103
230.7390             0.0104
230.7556             0.0104
230.7731             0.0109
230.7908             0.0109
230.8102             0.0104
230.8300             0.0104
230.8480             0.0100
230.8664             0.0099
230.8840             0.0099
230.9018             0.0104
230.9194             0.0104
230.9369             0.0104
230.9562             0.0104
230.9757             0.0104
230.9933             0.0102
231.0111             0.0101
231.0294             0.0095
231.0501             0.0095
231.0698             0.0097
231.0887             0.0099
231.1060             0.0100
231.1225             0.0100
231.1400             0.0099
231.1585             0.0099
231.1768             0.0100
231.1955             0.0100
231.2134             0.0098
231.2309             0.0096
231.2489             0.0093
231.2679             0.0093
231.2862             0.0097
231.3054             0.0097
231.3233             0.0100
231.3408             0.0099
231.3590             0.0100
231.3774             0.0100
231.3963             0.0100
231.4146             0.0097
231.4329             0.0097
231.4516             0.0100
231.4718             0.0100
231.4914             0.0101
231.5099             0.0096
231.5286             0.0101
231.5477             0.0099
231.5665             0.0099
231.5829             0.0098
231.6018             0.0098
231.6225             0.0096
231.6396             0.0096
231.6566             0.0096
231.6756             0.0098
231.6944             0.0098
231.7134             0.0095
231.7323             0.0095
231.7517             0.0100
231.7724             0.0100
231.7899             0.0098
231.8065             0.0098
231.8255             0.0099
231.8437             0.0099
231.8625             0.0097
231.8807             0.0096
231.8994             0.0096
231.9208             0.0097
231.9392             0.0100
231.9571             0.0100
231.9764             0.0095
231.9948             0.0095
232.0135             0.0100
232.0308             0.0103
232.0499             0.0103
232.0689             0.0100
232.0866             0.0100
232.1070             0.0096
232.1287             0.0096
232.1488             0.0096
232.1652             0.0094
232.1821             0.0095
232.2003             0.0095
232.2179             0.0098
232.2354             0.0102
232.2549             0.0102
232.2745             0.0102
232.2931             0.0104
232.3119             0.0104
232.3300             0.0098
232.3494             0.0097
232.3683             0.0095
232.3863             0.0095
232.4051             0.0095
232.4245             0.0097
232.4430             0.0097
232.4626             0.0097
232.4826             0.0095
232.5031             0.0095
232.5210             0.0095
232.5385             0.0096
232.5575             0.0096
232.5769             0.0096
232.5951             0.0099
232.6124             0.0099
232.6303             0.0098
232.6505             0.0098
232.6702             0.0097
232.6905             0.0100
232.7106             0.0097
232.7294             0.0102
232.7493             0.0098
232.7682             0.0100
232.7868             0.0100
232.8058             0.0100
232.8253             0.0101
232.8439             0.0097
232.8630             0.0101
232.8819             0.0093
232.8993             0.0100
232.9165             0.0100
232.9355             0.0100
232.9575             0.0099
232.9769             0.0099
232.9947             0.0096
233.0131             0.0097
233.0316             0.0097
233.0512             0.0097
233.0714             0.0097
233.0904             0.0093
233.1094             0.0093
233.1289             0.0091
233.1483             0.0091
233.1662             0.0093
233.1846             0.0093
233.2048             0.0101
233.2235             0.0101
233.2424             0.0097
233.2623             0.0092
233.2818             0.0092
233.3010             0.0093
233.3197             0.0093
233.3389             0.0092
233.3590             0.0092
233.3805             0.0095
233.3992             0.0095
233.4173             0.0094
233.4372             0.0093
233.4577             0.0093
233.4779             0.0096
233.4961             0.0096
233.5148             0.0095
233.5346             0.0095
233.5544             0.0096
233.5752             0.0096
233.5963             0.0093
233.6146             0.0093
233.6311             0.0096
233.6506             0.0096
233.6707             0.0099
233.6898             0.0096
233.7076             0.0096
233.7270             0.0095
233.7482             0.0095
233.7677             0.0093
233.7881             0.0093
233.8092             0.0093
233.8303             0.0095
233.8490             0.0095
233.8655             0.0092
233.8841             0.0092
233.9035             0.0093
233.9225             0.0097
233.9412             0.0093
233.9622             0.0090
233.9848             0.0087
234.0046             0.0087
234.0222             0.0097
234.0402             0.0097
234.0595             0.0092
234.0809             0.0092
234.1010             0.0093
234.1197             0.0093
234.1372             0.0093
234.1553             0.0090
234.1752             0.0093
234.1971             0.0093
234.2178             0.0093
234.2359             0.0098
234.2550             0.0094
234.2754             0.0094
234.2956             0.0089
234.3145             0.0089
234.3335             0.0095
234.3542             0.0095
234.3752             0.0094
234.3955             0.0091
234.4155             0.0091
234.4357             0.0091
234.4543             0.0095
234.4731             0.0095
234.4925             0.0095
234.5129             0.0093
234.5331             0.0090
234.5516             0.0090
234.5716             0.0093
234.5916             0.0093
234.6120             0.0093
234.6328             0.0093
234.6516             0.0091
234.6703             0.0091
234.6905             0.0088
234.7108             0.0090
234.7311             0.0090
234.7500             0.0090
234.7683             0.0093
234.7876             0.0091
234.8071             0.0093
234.8279             0.0095
234.8487             0.0095
234.8695             0.0093
234.8900             0.0090
234.9113             0.0093
234.9299             0.0090
234.9478             0.0091
234.9671             0.0091
234.9873             0.0096
235.0074             0.0096
235.0283             0.0092
235.0487             0.0092
235.0687             0.0090
235.0904             0.0092
235.1134             0.0090
235.1333             0.0090
235.1527             0.0089
235.1740             0.0089
235.1933             0.0090
235.2099             0.0095
235.2295             0.0093
235.2499             0.0093
235.2694             0.0091
235.2896             0.0089
235.3098             0.0091
235.3301             0.0089
235.3501             0.0089
235.3697             0.0089
235.3896             0.0089
235.4098             0.0094
235.4315             0.0089
235.4529             0.0096
235.4746             0.0088
235.4946             0.0090
235.5138             0.0090
235.5340             0.0090
235.5547             0.0092
235.5757             0.0087
235.5968             0.0098
235.6181             0.0092
235.6404             0.0092
235.6618             0.0092
235.6803             0.0086
235.6965             0.0090
235.7148             0.0090
235.7345             0.0090
235.7551             0.0089
235.7764             0.0085
235.7972             0.0085
235.8180             0.0085
235.8385             0.0090
235.8582             0.0091
235.8775             0.0091
235.8980             0.0093
235.9175             0.0093
235.9370             0.0090
235.9591             0.0090
235.9800             0.0095
236.0011             0.0095
236.0209             0.0095
236.0412             0.0092
236.0624             0.0092
236.0842             0.0092
236.1045             0.0086
236.1240             0.0086
236.1437             0.0092
236.1616             0.0092
236.1816             0.0093
236.2031             0.0093
236.2221             0.0098
236.2423             0.0098
236.2628             0.0087
236.2834             0.0086
236.3036             0.0087
236.3239             0.0091
236.3442             0.0093
236.3653             0.0091
236.3851             0.0092
236.4065             0.0091
236.4276             0.0091
236.4484             0.0091
236.4690             0.0089
236.4890             0.0089
236.5092             0.0089
236.5322             0.0083
236.5520             0.0081
236.5702             0.0083
236.5901             0.0088
236.6113             0.0089
236.6316             0.0092
236.6523             0.0089
236.6742             0.0088
236.6947             0.0088
236.7163             0.0088
236.7388             0.0088
236.7594             0.0088
236.7778             0.0089
236.7984             0.0091
236.8207             0.0091
236.8426             0.0091
236.8638             0.0088
236.8852             0.0090
236.9061             0.0086
236.9260             0.0085
236.9447             0.0085
236.9652             0.0085
236.9876             0.0088
237.0094             0.0088
237.0311             0.0088
237.0505             0.0087
237.0691             0.0087
237.0892             0.0087
237.1114             0.0087
237.1334             0.0087
237.1556             0.0087
237.1775             0.0087
237.1988             0.0089
237.2208             0.0089
237.2416             0.0089
237.2605             0.0089
237.2795             0.0091
237.3002             0.0091
237.3200             0.0091
237.3413             0.0086
237.3640             0.0089
237.3839             0.0085
237.4057             0.0085
237.4292             0.0085
237.4504             0.0085
237.4701             0.0086
237.4890             0.0085
237.5107             0.0087
237.5341             0.0086
237.5562             0.0086
237.5791             0.0085
237.5998             0.0083
237.6212             0.0083
237.6454             0.0082
237.6654             0.0087
237.6827             0.0083
237.7028             0.0087
237.7239             0.0085
237.7455             0.0088
237.7680             0.0086
237.7887             0.0086
237.8097             0.0086
237.8316             0.0086
237.8522             0.0089
237.8721             0.0089
237.8938             0.0089
237.9169             0.0089
237.9369             0.0089
237.9594             0.0084
237.9825             0.0084
238.0038             0.0084
238.0254             0.0084
238.0464             0.0084
238.0665             0.0083
238.0861             0.0083
238.1072             0.0084
238.1320             0.0087
238.1549             0.0084
238.1727             0.0087
238.1914             0.0086
238.2117             0.0090
238.2340             0.0086
238.2573             0.0087
238.2780             0.0087
238.2977             0.0089
238.3192             0.0091
238.3412             0.0093
238.3621             0.0093
238.3842             0.0084
238.4063             0.0084
238.4283             0.0090
238.4503             0.0090
238.4720             0.0090
238.4932             0.0090
238.5168             0.0089
238.5380             0.0086
238.5584             0.0086
238.5798             0.0087
238.6034             0.0087
238.6242             0.0088
238.6431             0.0087
238.6641             0.0088
238.6856             0.0087
238.7068             0.0085
238.7285             0.0085
238.7506             0.0086
238.7724             0.0087
238.7938             0.0091
238.8162             0.0091
238.8392             0.0089
238.8620             0.0083
238.8824             0.0083
238.9022             0.0083
238.9237             0.0082
238.9457             0.0090
238.9682             0.0086
238.9908             0.0091
239.0119             0.0091
239.0324             0.0091
239.0533             0.0091
239.0753             0.0091
239.0966             0.0087
239.1178             0.0087
239.1400             0.0087
239.1636             0.0084
239.1855             0.0087
239.2070             0.0087
239.2291             0.0087
239.2525             0.0086
239.2757             0.0084
239.2980             0.0084
239.3200             0.0084
239.3419             0.0083
239.3611             0.0088
239.3816             0.0088
239.4039             0.0088
239.4268             0.0089
239.4482             0.0089
239.4680             0.0089
239.4893             0.0088
239.5113             0.0088
239.5320             0.0082
239.5524             0.0091
239.5758             0.0084
239.5970             0.0084
239.6183             0.0084
239.6416             0.0083
239.6657             0.0083
239.6896             0.0082
239.7129             0.0082
239.7370             0.0081
239.7602             0.0081
239.7815             0.0081
239.7997             0.0091
239.8213             0.0091
239.8435             0.0087
239.8659             0.0087
239.8864             0.0088
239.9067             0.0088
239.9283             0.0087
239.9499             0.0081
239.9726             0.0083
239.9948             0.0082
240.0167             0.0083
240.0386             0.0083
240.0608             0.0083
240.0840             0.0083
240.1072             0.0085
240.1312             0.0083
240.1524             0.0082
240.1742             0.0082
240.1975             0.0086
240.2216             0.0087
240.2445             0.0087
240.2676             0.0087
240.2892             0.0081
240.3085             0.0081
240.3305             0.0080
240.3535             0.0080
240.3738             0.0083
240.3950             0.0083
240.4179             0.0083
240.4395             0.0087
240.4615             0.0078
240.4835             0.0078
240.5048             0.0078
240.5268             0.0085
240.5500             0.0085
240.5725             0.0083
240.5953             0.0083
240.6183             0.0082
240.6423             0.0087
240.6669             0.0082
240.6884             0.0085
240.7116             0.0083
240.7331             0.0085
240.7541             0.0083
240.7770             0.0081
240.8006             0.0081
240.8243             0.0085
240.8480             0.0085
240.8696             0.0085
240.8916             0.0085
240.9137             0.0085
240.9371             0.0084
240.9605             0.0084
240.9841             0.0084
241.0053             0.0087
241.0261             0.0085
241.0477             0.0085
241.0697             0.0078
241.0911             0.0078
241.1125             0.0087
241.1353             0.0088
241.1577             0.0088
241.1799             0.0085
241.2033             0.0081
241.2258             0.0085
241.2492             0.0085
241.2718             0.0085
241.2945             0.0084
241.3176             0.0084
241.3414             0.0083
241.3650             0.0083
241.3892             0.0083
241.4124             0.0081
241.4331             0.0083
241.4555             0.0081
241.4791             0.0082
241.5038             0.0080
241.5268             0.0082
241.5473             0.0083
241.5683             0.0084
241.5920             0.0084
241.6153             0.0083
241.6396             0.0083
241.6651             0.0083
241.6870             0.0086
241.7078             0.0082
241.7308             0.0087
241.7542             0.0087
241.7784             0.0087
241.8013             0.0081
241.8230             0.0081
241.8468             0.0081
241.8722             0.0081
241.8942             0.0084
241.9136             0.0084
241.9365             0.0084
241.9589             0.0084
241.9810             0.0081
242.0042             0.0081
242.0278             0.0077
242.0506             0.0077
242.0743             0.0078
242.0979             0.0078
242.1214             0.0078
242.1444             0.0079
242.1671             0.0080
242.1896             0.0079
242.2123             0.0080
242.2373             0.0080
242.2612             0.0083
242.2853             0.0085
242.3100             0.0085
242.3339             0.0084
242.3554             0.0084
242.3759             0.0084
242.3992             0.0084
242.4225             0.0084
242.4447             0.0084
242.4668             0.0084
242.4915             0.0084
242.5165             0.0084
242.5386             0.0084
242.5598             0.0084
242.5843             0.0083
242.6076             0.0078
242.6319             0.0078
242.6549             0.0078
242.6763             0.0080
242.7002             0.0080
242.7253             0.0080
242.7477             0.0078
242.7679             0.0076
242.7895             0.0078
242.8131             0.0074
242.8363             0.0079
242.8601             0.0077
242.8825             0.0079
242.9087             0.0080
242.9371             0.0080
242.9599             0.0080
242.9805             0.0080
243.0108             0.0084
243.0343             0.0088
243.0582             0.0088
243.0821             0.0087
243.1034             0.0087
243.1270             0.0085
243.1507             0.0085
243.1747             0.0085
243.1980             0.0083
243.2203             0.0086
243.2432             0.0086
243.2672             0.0086
243.2919             0.0082
243.3177             0.0082
243.3410             0.0086
243.3631             0.0087
243.3863             0.0086
243.4107             0.0086
243.4350             0.0086
243.4579             0.0086
243.4816             0.0082
243.5055             0.0082
243.5275             0.0085
243.5513             0.0085
243.5747             0.0085
243.5962             0.0082
243.6206             0.0082
243.6446             0.0083
243.6682             0.0087
243.6926             0.0083
243.7160             0.0083
243.7394             0.0083
243.7631             0.0089
243.7866             0.0089
243.8108             0.0085
243.8336             0.0081
243.8561             0.0081
243.8794             0.0081
243.9036             0.0082
243.9306             0.0083
243.9554             0.0083
243.9778             0.0083
244.0032             0.0078
244.0277             0.0078
244.0505             0.0085
244.0729             0.0085
244.0965             0.0085
244.1236             0.0082
244.1506             0.0082
244.1735             0.0080
244.1980             0.0078
244.2221             0.0080
244.2434             0.0079
244.2668             0.0082
244.2924             0.0080
244.3173             0.0083
244.3414             0.0081
244.3648             0.0083
244.3880             0.0083
244.4119             0.0083
244.4367             0.0083
244.4618             0.0083
244.4846             0.0083
244.5079             0.0087
244.5304             0.0083
244.5532             0.0082
244.5771             0.0082
244.6007             0.0082
244.6254             0.0085
244.6527             0.0085
244.6787             0.0085
244.7042             0.0083
244.7288             0.0083
244.7532             0.0083
244.7753             0.0084
244.8007             0.0087
244.8246             0.0087
244.8470             0.0087
244.8696             0.0082
244.8970             0.0082
244.9224             0.0085
244.9443             0.0086
244.9683             0.0086
244.9942             0.0083
245.0201             0.0082
245.0427             0.0081
245.0650             0.0081
245.0897             0.0081
245.1128             0.0084
245.1353             0.0084
245.1597             0.0081
245.1855             0.0081
245.2100             0.0083
245.2344             0.0084
245.2582             0.0084
245.2835             0.0084
245.3083             0.0082
245.3327             0.0080
245.3584             0.0076
245.3833             0.0080
245.4070             0.0083
245.4284             0.0083
245.4515             0.0083
245.4776             0.0078
245.5042             0.0081
245.5297             0.0081
245.5543             0.0081
245.5803             0.0084
245.6060             0.0082
245.6305             0.0085
245.6518             0.0082
245.6787             0.0080
245.7063             0.0080
245.7309             0.0084
245.7546             0.0084
245.7801             0.0082
245.8067             0.0082
245.8338             0.0084
245.8568             0.0084
245.8792             0.0084
245.9025             0.0081
245.9253             0.0081
245.9500             0.0081
245.9759             0.0083
246.0016             0.0083
246.0265             0.0080
246.0487             0.0076
246.0723             0.0076
246.0986             0.0078
246.1255             0.0082
246.1510             0.0082
246.1747             0.0082
246.1977             0.0078
246.2244             0.0084
246.2489             0.0082
246.2722             0.0082
246.2974             0.0082
246.3221             0.0080
246.3471             0.0086
246.3713             0.0086
246.3959             0.0086
246.4233             0.0086
246.4468             0.0080
246.4680             0.0078
246.4928             0.0078
246.5190             0.0083
246.5436             0.0087
246.5697             0.0087
246.5950             0.0081
246.6206             0.0077
246.6469             0.0076
246.6714             0.0076
246.6947             0.0079
246.7199             0.0080
246.7463             0.0079
246.7715             0.0076
246.7966             0.0076
246.8230             0.0080
246.8474             0.0084
246.8711             0.0080
246.8961             0.0080
246.9227             0.0079
246.9483             0.0079
246.9744             0.0079
246.9980             0.0080
247.0207             0.0082
247.0455             0.0084
247.0706             0.0084
247.0964             0.0084
247.1230             0.0086
247.1491             0.0080
247.1750             0.0087
247.1994             0.0082
247.2231             0.0082
247.2465             0.0079
247.2735             0.0078
247.3009             0.0079
247.3236             0.0078
247.3493             0.0081
247.3743             0.0078
247.3955             0.0081
247.4180             0.0078
247.4435             0.0079
247.4716             0.0078
247.4982             0.0078
247.5214             0.0077
247.5460             0.0077
247.5715             0.0079
247.5965             0.0079
247.6212             0.0079
247.6470             0.0077
247.6727             0.0073
247.6972             0.0073
247.7201             0.0073
247.7460             0.0083
247.7738             0.0083
247.7975             0.0083
247.8249             0.0078
247.8552             0.0078
247.8843             0.0080
247.9113             0.0080
247.9374             0.0080
247.9630             0.0077
247.9883             0.0077
248.0148             0.0077
248.0417             0.0080
248.0655             0.0082
248.0912             0.0080
248.1182             0.0080
248.1434             0.0080
248.1687             0.0074
248.1946             0.0080
248.2214             0.0080
248.2479             0.0080
248.2746             0.0081
248.3012             0.0081
248.3278             0.0081
248.3521             0.0077
248.3762             0.0075
248.4035             0.0077
248.4301             0.0077
248.4556             0.0077
248.4810             0.0077
248.5075             0.0080
248.5340             0.0076
248.5587             0.0077
248.5846             0.0077
248.6122             0.0077
248.6385             0.0077
248.6626             0.0073
248.6873             0.0077
248.7131             0.0073
248.7398             0.0074
248.7643             0.0074
248.7901             0.0074
248.8163             0.0076
248.8432             0.0075
248.8686             0.0079
248.8919             0.0075
248.9164             0.0076
248.9432             0.0076
248.9699             0.0077
248.9943             0.0077
249.0198             0.0077
249.0465             0.0077
249.0716             0.0077
249.0972             0.0077
249.1241             0.0077
249.1520             0.0077
249.1787             0.0075
249.2044             0.0074
249.2319             0.0073
249.2584             0.0074
249.2879             0.0071
249.3167             0.0071
249.3415             0.0071
249.3662             0.0071
249.3912             0.0077
249.4155             0.0072
249.4400             0.0076
249.4665             0.0076
249.4931             0.0076
249.5193             0.0078
249.5456             0.0076
249.5717             0.0078
249.5979             0.0073
249.6239             0.0079
249.6501             0.0074
249.6790             0.0075
249.7080             0.0074
249.7346             0.0074
249.7620             0.0074
249.7878             0.0076
249.8148             0.0079
249.8426             0.0079
249.8681             0.0074
249.8937             0.0073
249.9192             0.0073
249.9466             0.0075
249.9739             0.0075
249.9981             0.0079
250.0236             0.0072
250.0488             0.0078
250.0731             0.0076
250.0996             0.0077
250.1278             0.0077
250.1563             0.0077
250.1849             0.0081
250.2103             0.0081
250.2365             0.0081
250.2621             0.0076
250.2861             0.0076
250.3104             0.0076
250.3382             0.0077
250.3659             0.0077
250.3941             0.0079
250.4214             0.0083
250.4491             0.0083
250.4772             0.0075
250.5047             0.0075
250.5302             0.0076
250.5582             0.0079
250.5856             0.0077
250.6127             0.0077
250.6381             0.0073
250.6626             0.0073
250.6892             0.0074
250.7168             0.0074
250.7444             0.0074
250.7734             0.0080
250.8017             0.0075
250.8308             0.0081
250.8570             0.0075
250.8835             0.0080
250.9134             0.0075
250.9414             0.0075
250.9664             0.0075
250.9936             0.0075
251.0193             0.0075
251.0438             0.0075
251.0685             0.0075
251.0943             0.0075
251.1224             0.0075
251.1488             0.0075
251.1745             0.0076
251.2007             0.0076
251.2276             0.0074
251.2545             0.0074
251.2816             0.0082
251.3093             0.0082
251.3374             0.0080
251.3637             0.0080
251.3903             0.0080
251.4172             0.0080
251.4443             0.0072
251.4722             0.0076
251.4969             0.0074
251.5241             0.0076
251.5513             0.0074
251.5771             0.0077
251.6046             0.0078
251.6338             0.0078
251.6601             0.0075
251.6895             0.0075
251.7178             0.0076
251.7436             0.0076
251.7709             0.0073
251.7999             0.0073
251.8281             0.0073
251.8552             0.0075
251.8827             0.0077
251.9109             0.0077
251.9354             0.0077
251.9603             0.0073
251.9871             0.0076
252.0159             0.0076
252.0441             0.0076
252.0717             0.0077
252.0982             0.0079
252.1248             0.0079
252.1525             0.0079
252.1812             0.0075
252.2094             0.0075
252.2377             0.0075
252.2657             0.0076
252.2918             0.0077
252.3190             0.0077
252.3475             0.0077
252.3749             0.0078
252.4032             0.0079
252.4287             0.0079
252.4542             0.0075
252.4826             0.0075
252.5101             0.0075
252.5369             0.0076
252.5640             0.0076
252.5895             0.0076
252.6160             0.0077
252.6456             0.0072
252.6739             0.0076
252.7016             0.0072
252.7300             0.0076
252.7579             0.0071
252.7855             0.0073
252.8130             0.0073
252.8415             0.0073
252.8691             0.0073
252.8966             0.0072
252.9252             0.0072
252.9556             0.0073
252.9827             0.0073
253.0078             0.0078
253.0360             0.0074
253.0638             0.0079
253.0921             0.0074
253.1208             0.0074
253.1484             0.0074
253.1751             0.0075
253.2012             0.0075
253.2281             0.0074
253.2555             0.0074
253.2861             0.0070
253.3147             0.0075
253.3419             0.0071
253.3721             0.0071
253.4014             0.0066
253.4277             0.0066
253.4551             0.0069
253.4841             0.0069
253.5132             0.0076
253.5406             0.0075
253.5669             0.0075
253.5945             0.0075
253.6201             0.0073
253.6469             0.0075
253.6743             0.0075
253.7003             0.0075
253.7282             0.0076
253.7585             0.0076
253.7864             0.0077
253.8141             0.0076
253.8461             0.0075
253.8752             0.0075
253.9031             0.0075
253.9296             0.0075
253.9585             0.0075
253.9936             0.0074
254.0210             0.0074
254.0821             0.0074
254.1560             0.0069
254.1833             0.0076
254.2100             0.0072
254.2372             0.0072
254.2651             0.0072
254.2960             0.0067
254.3238             0.0072
254.3512             0.0070
254.3801             0.0070
254.4096             0.0070
254.4382             0.0070
254.4645             0.0072
254.4918             0.0073
254.5206             0.0073
254.5456             0.0073
254.5727             0.0076
254.6008             0.0075
254.6314             0.0075
254.6612             0.0072
254.6890             0.0072
254.7161             0.0074
254.7444             0.0074
254.7753             0.0074
254.8046             0.0074
254.8310             0.0074
254.8615             0.0067
254.8912             0.0067
254.9185             0.0066
254.9488             0.0071
254.9770             0.0071
255.0037             0.0077
255.0335             0.0077
255.0620             0.0068
255.0893             0.0068
255.1173             0.0069
255.1459             0.0069
255.1756             0.0069
255.2059             0.0070
255.2348             0.0070
255.2626             0.0069
255.2911             0.0068
255.3203             0.0069
255.3520             0.0069
255.3809             0.0069
255.4080             0.0070
255.4369             0.0072
255.4666             0.0076
255.4935             0.0072
255.5229             0.0070
255.5541             0.0067
255.5833             0.0067
255.6096             0.0064
255.6382             0.0064
255.6659             0.0064
255.6944             0.0065
255.7235             0.0070
255.7524             0.0070
255.7824             0.0070
255.8103             0.0071
255.8367             0.0071
255.8658             0.0068
255.8940             0.0068
255.9233             0.0074
255.9525             0.0074
255.9812             0.0071
256.0108             0.0070
256.0410             0.0069
256.0711             0.0069
256.0994             0.0072
256.1260             0.0072
256.1529             0.0070
256.1823             0.0070
256.2122             0.0069
256.2426             0.0071
256.2720             0.0071
256.3015             0.0072
256.3319             0.0072
256.3599             0.0071
256.3871             0.0070
256.4175             0.0070
256.4483             0.0069
256.4760             0.0069
256.5037             0.0067
256.5350             0.0067
256.5667             0.0067
256.5957             0.0067
256.6227             0.0067
256.6486             0.0067
256.6766             0.0065
256.7065             0.0065
256.7357             0.0068
256.7659             0.0068
256.7974             0.0068
256.8258             0.0068
256.8542             0.0069
256.8849             0.0070
256.9173             0.0069
256.9503             0.0068
256.9789             0.0068
257.0072             0.0062
257.0372             0.0062
257.0647             0.0062
257.0928             0.0066
257.1209             0.0066
257.1475             0.0069
257.1756             0.0069
257.2067             0.0072
257.2374             0.0072
257.2663             0.0072
257.2919             0.0066
257.3227             0.0074
257.3545             0.0069
257.3857             0.0074
257.4154             0.0070
257.4454             0.0072
257.4724             0.0071
257.5027             0.0071
257.5328             0.0069
257.5616             0.0069
257.5934             0.0069
257.6239             0.0072
257.6510             0.0072
257.6790             0.0067
257.7090             0.0067
257.7380             0.0067
257.7661             0.0067
257.7975             0.0067
257.8306             0.0070
257.8583             0.0070
257.8856             0.0070
257.9158             0.0071
257.9472             0.0071
257.9762             0.0071
258.0027             0.0069
258.0343             0.0073
258.0638             0.0074
258.0911             0.0074
258.1205             0.0073
258.1510             0.0071
258.1808             0.0069
258.2110             0.0071
258.2417             0.0071
258.2748             0.0072
258.3053             0.0073
258.3325             0.0073
258.3606             0.0072
258.3901             0.0071
258.4182             0.0071
258.4486             0.0071
258.4796             0.0071
258.5100             0.0073
258.5386             0.0073
258.5704             0.0073
258.6000             0.0073
258.6272             0.0072
258.6570             0.0067
258.6895             0.0067
258.7208             0.0070
258.7482             0.0071
258.7765             0.0070
258.8058             0.0072
258.8365             0.0071
258.8683             0.0072
258.8969             0.0071
258.9244             0.0065
258.9545             0.0065
258.9866             0.0070
259.0189             0.0070
259.0468             0.0065
259.0752             0.0064
259.1068             0.0065
259.1378             0.0072
259.1686             0.0072
259.1984             0.0072
259.2328             0.0072
259.2659             0.0076
259.2951             0.0076
259.3258             0.0072
259.3553             0.0072
259.3809             0.0075
259.4113             0.0075
259.4427             0.0074
259.4734             0.0074
259.5060             0.0074
259.5395             0.0074
259.5716             0.0074
259.6011             0.0071
259.6293             0.0069
259.6573             0.0069
259.6850             0.0069
259.7159             0.0073
259.7487             0.0073
259.7807             0.0073
259.8108             0.0073
259.8404             0.0072
259.8707             0.0073
259.9016             0.0077
259.9317             0.0077
259.9604             0.0076
259.9891             0.0075
260.0166             0.0072
260.0495             0.0069
260.0816             0.0069
260.1094             0.0069
260.1404             0.0070
260.1721             0.0069
260.2022             0.0069
260.2352             0.0074
260.2677             0.0074
260.2982             0.0071
260.3269             0.0071
260.3520             0.0071
260.3802             0.0067
260.4108             0.0067
260.4414             0.0072
260.4735             0.0072
260.5047             0.0072
260.5342             0.0073
260.5679             0.0076
260.6006             0.0076
260.6308             0.0076
260.6574             0.0073
260.6850             0.0072
260.7126             0.0072
260.7408             0.0076
260.7690             0.0076
260.8003             0.0076
260.8333             0.0077
260.8664             0.0077
260.8973             0.0078
260.9287             0.0074
260.9607             0.0076
260.9905             0.0074
261.0200             0.0073
261.0510             0.0073
261.0805             0.0068
261.1104             0.0068
261.1412             0.0068
261.1728             0.0068
261.2028             0.0068
261.2354             0.0071
261.2657             0.0071
261.2959             0.0071
261.3280             0.0070
261.3592             0.0070
261.3902             0.0073
261.4221             0.0073
261.4554             0.0073
261.4854             0.0069
261.5113             0.0069
261.5415             0.0071
261.5724             0.0073
261.6023             0.0073
261.6312             0.0073
261.6607             0.0070
261.6915             0.0070
261.7234             0.0070
261.7551             0.0072
261.7903             0.0072
261.8229             0.0072
261.8508             0.0072
261.8810             0.0073
261.9106             0.0073
261.9382             0.0067
261.9679             0.0067
261.9993             0.0074
262.0342             0.0074
262.0667             0.0073
262.0955             0.0073
262.1266             0.0067
262.1592             0.0067
262.1931             0.0073
262.2245             0.0073
262.2527             0.0073
262.2825             0.0073
262.3128             0.0073
262.3440             0.0076
262.3728             0.0076
262.4021             0.0076
262.4329             0.0070
262.4663             0.0068
262.4979             0.0069
262.5271             0.0069
262.5575             0.0069
262.5863             0.0070
262.6147             0.0070
262.6468             0.0070
262.6771             0.0074
262.7076             0.0074
262.7392             0.0070
262.7741             0.0070
262.8067             0.0070
262.8360             0.0074
262.8670             0.0075
262.9000             0.0075
262.9314             0.0072
262.9593             0.0072
262.9903             0.0072
263.0244             0.0070
263.0566             0.0066
263.0873             0.0070
263.1160             0.0071
263.1454             0.0071
263.1777             0.0071
263.2096             0.0071
263.2399             0.0072
263.2726             0.0072
263.3042             0.0069
263.3344             0.0069
263.3643             0.0068
263.3955             0.0069
263.4287             0.0067
263.4613             0.0067
263.4943             0.0067
263.5266             0.0074
263.5583             0.0074
263.5920             0.0072
263.6259             0.0072
263.6566             0.0071
263.6862             0.0071
263.7194             0.0071
263.7489             0.0068
263.7790             0.0066
263.8112             0.0067
263.8435             0.0066
263.8738             0.0067
263.9053             0.0071
263.9372             0.0071
263.9691             0.0068
263.9975             0.0068
264.0272             0.0067
264.0601             0.0067
264.0919             0.0067
264.1241             0.0065
264.1551             0.0069
264.1859             0.0068
264.2167             0.0068
264.2443             0.0061
264.2746             0.0061
264.3075             0.0069
264.3403             0.0069
264.3739             0.0064
264.4074             0.0064
264.4404             0.0064
264.4733             0.0069
264.5016             0.0066
264.5337             0.0066
264.5656             0.0066
264.5963             0.0066
264.6275             0.0065
264.6597             0.0065
264.6906             0.0065
264.7228             0.0064
264.7546             0.0064
264.7887             0.0065
264.8211             0.0066
264.8513             0.0067
264.8841             0.0067
264.9166             0.0065
264.9464             0.0065
264.9776             0.0070
265.0079             0.0070
265.0370             0.0069
265.0696             0.0069
265.1025             0.0065
265.1339             0.0069
265.1661             0.0066
265.1995             0.0066
265.2329             0.0066
265.2668             0.0064
265.3005             0.0063
265.3330             0.0059
265.3656             0.0059
265.3994             0.0067
265.4309             0.0067
265.4576             0.0062
265.4883             0.0062
265.5210             0.0062
265.5550             0.0065
265.5866             0.0065
265.6172             0.0065
265.6467             0.0061
265.6786             0.0063
265.7115             0.0061
265.7446             0.0062
265.7767             0.0062
265.8085             0.0062
265.8401             0.0063
265.8747             0.0061
265.9074             0.0063
265.9361             0.0061
265.9666             0.0059
266.0011             0.0059
266.0365             0.0061
266.0692             0.0061
266.1014             0.0061
266.1354             0.0065
266.1700             0.0065
266.1996             0.0060
266.2275             0.0058
266.2586             0.0058
266.2909             0.0058
266.3248             0.0061
266.3557             0.0061
266.3873             0.0060
266.4210             0.0060
266.4531             0.0057
266.4862             0.0057
266.5226             0.0052
266.5565             0.0052
266.5886             0.0052
266.6202             0.0050
266.6525             0.0049
266.6841             0.0049
266.7153             0.0049
266.7454             0.0054
266.7759             0.0051
266.8087             0.0054
266.8411             0.0053
266.8731             0.0053
266.9033             0.0050
266.9367             0.0048
266.9687             0.0050
267.0000             0.0051
267.0322             0.0051
267.0647             0.0055
267.0986             0.0049
267.1319             0.0051
267.1639             0.0050
267.1950             0.0050
267.2288             0.0050
267.2632             0.0048
267.2980             0.0048
267.3307             0.0048
267.3583             0.0046
267.3900             0.0047
267.4236             0.0047
267.4571             0.0049
267.4924             0.0049
267.5250             0.0046
267.5570             0.0046
267.5898             0.0046
267.6216             0.0050
267.6541             0.0050
267.6857             0.0046
267.7155             0.0046
267.7468             0.0046
267.7781             0.0047
267.8130             0.0044
267.8469             0.0045
267.8769             0.0045
267.9093             0.0045
267.9423             0.0042
267.9758             0.0042
268.0082             0.0041
268.0416             0.0041
268.0761             0.0038
268.1075             0.0036
268.1384             0.0035
268.1714             0.0035
268.2051             0.0034
268.2389             0.0037
268.2705             0.0037
268.3013             0.0038
268.3343             0.0038
268.3651             0.0038
268.3968             0.0039
268.4297             0.0039
268.4641             0.0038
268.4992             0.0038
268.5313             0.0035
268.5634             0.0034
268.5972             0.0031
268.6286             0.0030
268.6583             0.0030
268.6914             0.0033
268.7260             0.0033
268.7587             0.0032
268.7912             0.0029
268.8245             0.0029
268.8591             0.0029
268.8921             0.0029
268.9284             0.0029
268.9632             0.0030
268.9945             0.0028
269.0270             0.0026
269.0588             0.0026
269.0904             0.0030
269.1242             0.0030
269.1551             0.0029
269.1870             0.0026
269.2186             0.0026
269.2488             0.0028
269.2808             0.0028
269.3160             0.0028
269.3504             0.0029
269.3818             0.0029
269.4160             0.0033
269.4510             0.0033
269.4866             0.0028
269.5236             0.0025
269.5578             0.0028
269.5867             0.0025
269.6142             0.0025
269.6478             0.0023
269.6802             0.0023
269.7108             0.0021
269.7451             0.0021
269.7800             0.0023
269.8141             0.0023
269.8481             0.0023
269.8797             0.0024
269.9107             0.0021
269.9441             0.0024
269.9770             0.0022
270.0099             0.0022
270.0437             0.0021
270.0751             0.0018
270.1067             0.0018
270.1380             0.0024
270.1706             0.0024
270.2029             0.0024
270.2392             0.0028
270.2719             0.0028
270.3055             0.0027
270.3389             0.0024
270.3725             0.0022
270.4065             0.0024
270.4388             0.0020
270.4709             0.0023
270.5016             0.0023
270.5346             0.0023
270.5692             0.0024
270.6018             0.0024
270.6348             0.0023
270.6695             0.0023
270.7047             0.0021
270.7370             0.0026
270.7685             0.0024
270.8022             0.0024
270.8333             0.0019
270.8637             0.0019
270.8976             0.0023
270.9310             0.0024
270.9678             0.0023
271.0049             0.0024
271.0435             0.0023
271.0798             0.0023
271.1123             0.0021
271.1462             0.0021
271.1807             0.0021
271.2128             0.0020
271.2429             0.0019
271.2758             0.0018
271.3151             0.0018
271.3502             0.0018
271.3807             0.0016
271.4137             0.0016
271.4463             0.0014
271.4810             0.0018
271.5176             0.0018
271.5521             0.0021
271.5869             0.0021
271.6192             0.0019
271.6493             0.0014
271.6819             0.0014
271.7173             0.0015
271.7530             0.0019
271.7877             0.0016
271.8193             0.0018
271.8526             0.0018
271.8903             0.0018
271.9230             0.0017
271.9526             0.0013
271.9845             0.0013
272.0155             0.0013
272.0488             0.0012
272.0830             0.0012
272.1162             0.0013
272.1516             0.0016
272.1883             0.0013
272.2232             0.0011
272.2588             0.0010
272.2905             0.0011
272.3217             0.0010
272.3555             0.0015
272.3892             0.0015
272.4234             0.0015
272.4589             0.0016
272.4930             0.0013
272.5242             0.0013
272.5576             0.0013
272.5965             0.0013
272.6310             0.0009
272.6625             0.0014
272.6944             0.0013
272.7298             0.0013
272.7623             0.0008
272.7930             0.0008
272.8251             0.0009
272.8591             0.0010
272.8934             0.0010
272.9267             0.0013
272.9602             0.0013
272.9970             0.0012
273.0317             0.0012
273.0654             0.0010
273.1015             0.0009
273.1367             0.0004
273.1693             0.0009
273.2007             0.0009
273.2346             0.0009
273.2704             0.0012
273.3067             0.0006
273.3410             0.0005
273.3764             0.0005
273.4121             0.0009
273.4446             0.0009
273.4762             0.0012
273.5083             0.0013
273.5411             0.0013
273.5748             0.0013
273.6078             0.0011
273.6415             0.0011
273.6755             0.0011
273.7083             0.0009
273.7440             0.0005
273.7800             0.0005
273.8140             0.0005
273.8451             0.0008
273.8773             0.0012
273.9136             0.0012
273.9457             0.0014
273.9790             0.0005
274.0170             0.0014
274.0499             0.0006
274.0822             0.0006
274.1164             0.0005
274.1536             0.0005
274.1900             0.0006
274.2225             0.0008
274.2553             0.0006
274.2921             0.0008
274.3271             0.0009
274.3598             0.0011
274.3944             0.0010
274.4290             0.0013
274.4628             0.0010
274.4959             0.0011
274.5303             0.0011
274.5641             0.0011
274.5962             0.0013
274.6295             0.0012
274.6664             0.0012
274.7043             0.0012
274.7405             0.0012
274.7759             0.0012
274.8086             0.0007
274.8443             0.0003
274.8786             0.0003
274.9130             0.0005
274.9494             0.0005
274.9834             0.0007
275.0183             0.0009
275.0523             0.0007
275.0825             0.0009
275.1116             0.0007
275.1461             0.0007
275.1835             0.0004
275.2213             0.0004
275.2563             0.0011
275.2914             0.0011
275.3279             0.0006
275.3638             0.0002
275.3978             0.0006
275.4277             0.0002
275.4590             0.0005
275.4925             0.0004
275.5266             0.0004
275.5607             0.0004
275.5966             0.0007
275.6338             0.0007
275.6714             0.0007
275.7086             0.0003
275.7423             0.0004
275.7747             0.0004
275.8088             0.0004
275.8438             0.0006
275.8796             0.0001
275.9112             0.0004
275.9439             0.0003
275.9800             0.0003
276.0173             0.0003
276.0565             0.0001
276.0935             0.0001
276.1246             0.0001
276.1581             0.0001
276.1919             0.0005
276.2287             0.0005
276.2611             0.0003
276.2945             0.0002
276.3272             0.0002
276.3609             0.0002
276.3952             0.0002
276.4298             0.0002
276.4667             0.0002
276.5054             0.0001
276.5410             0.0001
276.5732             0.0001
276.6080             -0.0001
276.6448             0.0001
276.6785             -0.0003
276.7145             0.0003
276.7503             0.0001
276.7845             0.0001
276.8237             -0.0002
276.8600             -0.0002
276.8956             0.0002
276.9272             0.0002
276.9566             0.0002
276.9915             0.0000
277.0274             -0.0000
277.0595             -0.0001
277.0967             -0.0001
277.1347             0.0002
277.1706             0.0002
277.2071             0.0003
277.2385             0.0002
277.2719             0.0002
277.3078             -0.0003
277.3418             -0.0003
277.3736             -0.0002
277.4076             -0.0003
277.4419             -0.0003
277.4752             -0.0003
277.5132             0.0003
277.5534             0.0003
277.5891             -0.0004
277.6237             -0.0006
277.6586             -0.0006
277.6952             -0.0006
277.7309             -0.0004
277.7659             -0.0004
277.8018             -0.0004
277.8379             -0.0005
277.8739             -0.0005
277.9107             -0.0005
277.9473             -0.0003
277.9823             0.0000
278.0165             0.0000
278.0501             0.0001
278.0813             0.0002
278.1165             0.0002
278.1549             -0.0004
278.1945             -0.0004
278.2331             -0.0005
278.2665             -0.0007
278.3015             -0.0007
278.3405             -0.0003
278.3763             -0.0003
278.4096             -0.0003
278.4458             -0.0001
278.4820             -0.0001
278.5163             -0.0002
278.5504             -0.0002
278.5858             -0.0002
278.6212             -0.0002
278.6555             -0.0002
278.6892             -0.0002
278.7234             -0.0002
278.7581             -0.0003
278.7937             -0.0003
278.8315             -0.0003
278.8670             -0.0007
278.9008             -0.0007
278.9361             -0.0008
278.9737             -0.0008
279.0114             -0.0003
279.0509             -0.0002
279.0897             -0.0002
279.1243             -0.0004
279.1568             -0.0004
279.1903             -0.0004
279.2275             -0.0003
279.2640             -0.0003
279.2983             0.0002
279.3314             0.0002
279.3681             0.0002
279.4093             -0.0004
279.4487             -0.0004
279.4812             0.0002
279.5167             0.0004
279.5519             0.0004
279.5850             0.0005
279.6190             0.0003
279.6520             0.0003
279.6839             0.0002
279.7176             0.0002
279.7567             0.0002
279.7937             0.0001
279.8274             0.0001
279.8611             0.0001
279.8952             0.0001
279.9325             0.0004
279.9689             0.0004
280.0053             0.0002
280.0413             0.0002
280.0759             0.0002
280.1087             0.0002
280.1452             0.0001
280.1839             -0.0002
280.2204             0.0000
280.2549             0.0000
280.2899             0.0000
280.3268             -0.0005
280.3625             -0.0005
280.3975             -0.0002
280.4338             -0.0002
280.4680             -0.0002
280.5040             0.0003
280.5426             0.0003
280.5783             0.0003
280.6160             -0.0002
280.6526             0.0003
280.6891             -0.0002
280.7256             0.0003
280.7638             -0.0003
280.7986             -0.0003
280.8313             -0.0005
280.8668             -0.0005
280.9019             -0.0001
280.9405             -0.0001
280.9818             -0.0005
281.0178             -0.0005
281.0543             -0.0007
281.0919             -0.0007
281.1304             -0.0010
281.1669             -0.0010
281.2009             -0.0008
281.2405             -0.0006
281.2782             -0.0001
281.3101             -0.0002
281.3433             -0.0002
281.3790             -0.0006
281.4191             -0.0009
281.4564             -0.0009
281.4914             -0.0004
281.5293             -0.0004
281.5664             -0.0004
281.6039             -0.0008
281.6402             0.0000
281.6730             -0.0007
281.7074             -0.0007
281.7428             -0.0007
281.7858             0.0001
281.8237             0.0001
281.8564             -0.0002
281.8900             -0.0002
281.9284             -0.0002
281.9630             -0.0001
281.9977             -0.0004
282.0368             -0.0004
282.0733             -0.0005
282.1086             -0.0004
282.1481             -0.0005
282.1858             -0.0005
282.2200             -0.0007
282.2539             -0.0005
282.2922             -0.0007
282.3302             -0.0004
282.3654             -0.0005
282.4022             -0.0005
282.4418             -0.0005
282.4810             -0.0007
282.5190             -0.0009
282.5552             -0.0011
282.5924             -0.0011
282.6263             -0.0010
282.6612             -0.0010
282.6997             -0.0010
282.7344             -0.0007
282.7654             -0.0007
282.7995             -0.0010
282.8377             -0.0010
282.8774             -0.0011
282.9168             -0.0006
282.9536             -0.0007
282.9876             -0.0006
283.0225             -0.0007
283.0608             -0.0012
283.1011             -0.0012
283.1381             -0.0012
283.1715             -0.0010
283.2064             -0.0010
283.2460             -0.0010
283.2832             -0.0011
283.3211             -0.0009
283.3590             -0.0008
283.3955             -0.0005
283.4290             -0.0005
283.4622             -0.0003
283.5002             -0.0005
283.5404             -0.0006
283.5755             -0.0006
283.6106             -0.0006
283.6478             -0.0007
283.6833             -0.0007
283.7194             -0.0007
283.7586             -0.0007
283.7950             -0.0008
283.8321             -0.0008
283.8694             -0.0009
283.9059             -0.0008
283.9438             -0.0005
283.9818             -0.0005
284.0177             -0.0004
284.0564             -0.0004
284.0948             -0.0004
284.1322             -0.0004
284.1700             -0.0004
284.2092             -0.0000
284.2417             -0.0005
284.2772             -0.0005
284.3145             -0.0005
284.3560             -0.0007
284.3942             -0.0007
284.4293             -0.0008
284.4664             -0.0010
284.5081             -0.0010
284.5462             -0.0007
284.5828             -0.0006
284.6218             -0.0007
284.6623             -0.0008
284.6998             -0.0008
284.7334             -0.0008
284.7667             -0.0007
284.8024             -0.0010
284.8407             -0.0006
284.8815             -0.0008
284.9218             -0.0007
284.9562             -0.0008
284.9922             -0.0008
285.0255             -0.0011
285.0570             -0.0008
285.0934             -0.0012
285.1305             -0.0012
285.1722             -0.0012
285.2111             -0.0010
285.2495             -0.0010
285.2897             -0.0010
285.3260             -0.0011
285.3648             -0.0012
285.4036             -0.0013
285.4358             -0.0013
285.4709             -0.0013
285.5103             -0.0013
285.5508             -0.0012
285.5872             -0.0010
285.6231             -0.0012
285.6598             -0.0007
285.6984             -0.0008
285.7376             -0.0007
285.7793             -0.0007
285.8181             -0.0006
285.8548             -0.0006
285.8885             -0.0008
285.9236             -0.0011
285.9609             -0.0012
285.9989             -0.0012
286.0361             -0.0012
286.0745             -0.0014
286.1131             -0.0014
286.1527             -0.0016
286.1888             -0.0017
286.2230             -0.0017
286.2601             -0.0017
286.2967             -0.0016
286.3344             -0.0016
286.3748             -0.0014
286.4132             -0.0014
286.4499             -0.0014
286.4881             -0.0016
286.5265             -0.0016
286.5637             -0.0016
286.6009             -0.0013
286.6376             -0.0013
286.6745             -0.0013
286.7109             -0.0017
286.7515             -0.0017
286.7925             -0.0017
286.8312             -0.0021
286.8690             -0.0015
286.9079             -0.0015
286.9459             -0.0015
286.9838             -0.0017
287.0224             -0.0020
287.0609             -0.0018
287.0970             -0.0021
287.1319             -0.0018
287.1703             -0.0019
287.2104             -0.0010
287.2509             -0.0015
287.2896             -0.0015
287.3263             -0.0019
287.3655             -0.0019
287.4040             -0.0017
287.4400             -0.0016
287.4771             -0.0013
287.5156             -0.0013
287.5554             -0.0013
287.5927             -0.0020
287.6321             -0.0020
287.6743             -0.0020
287.7086             -0.0022
287.7440             -0.0025
287.7823             -0.0022
287.8205             -0.0028
287.8592             -0.0021
287.8978             -0.0021
287.9361             -0.0016
287.9751             -0.0020
288.0134             -0.0016
288.0511             -0.0020
288.0889             -0.0022
288.1276             -0.0022
288.1657             -0.0023
288.2068             -0.0017
288.2465             -0.0023
288.2845             -0.0024
288.3221             -0.0024
288.3656             -0.0014
288.4051             -0.0014
288.4409             -0.0015
288.4810             -0.0018
288.5201             -0.0023
288.5622             -0.0025
288.6053             -0.0025
288.6391             -0.0024
288.6739             -0.0021
288.7097             -0.0015
288.7490             -0.0014
288.7845             -0.0019
288.8207             -0.0019
288.8591             -0.0019
288.8985             -0.0023
288.9394             -0.0025
288.9780             -0.0026
289.0137             -0.0026
289.0517             -0.0024
289.0881             -0.0018
289.1247             -0.0024
289.1643             -0.0025
289.2032             -0.0025
289.2406             -0.0024
289.2795             -0.0024
289.3195             -0.0023
289.3597             -0.0024
289.4010             -0.0023
289.4429             -0.0023
289.4800             -0.0023
289.5176             -0.0023
289.5588             -0.0023
289.6019             -0.0023
289.6402             -0.0025
289.6775             -0.0025
289.7139             -0.0025
289.7510             -0.0020
289.7900             -0.0024
289.8287             -0.0024
289.8684             -0.0027
289.9077             -0.0028
289.9477             -0.0027
289.9867             -0.0028
290.0244             -0.0024
290.0639             -0.0025
290.1024             -0.0025
290.1388             -0.0026
290.1776             -0.0026
290.2186             -0.0021
290.2557             -0.0021
290.2939             -0.0021
290.3322             -0.0026
290.3699             -0.0026
290.4119             -0.0025
290.4544             -0.0025
290.4952             -0.0025
290.5352             -0.0030
290.5687             -0.0020
290.6065             -0.0016
290.6479             -0.0015
290.6905             -0.0015
290.7284             -0.0017
290.7670             -0.0026
290.8074             -0.0026
290.8463             -0.0026
290.8823             -0.0028
290.9174             -0.0021
290.9547             -0.0028
290.9946             -0.0028
291.0341             -0.0028
291.0749             -0.0028
291.1124             -0.0028
291.1489             -0.0028
291.1883             -0.0028
291.2286             -0.0028
291.2660             -0.0028
291.3022             -0.0025
291.3407             -0.0025
291.3794             -0.0025
291.4197             -0.0029
291.4608             -0.0025
291.5020             -0.0024
291.5376             -0.0024
291.5776             -0.0024
291.6184             -0.0023
291.6582             -0.0019
291.6988             -0.0022
291.7408             -0.0020
291.7843             -0.0021
291.8232             -0.0020
291.8655             -0.0015
291.9090             -0.0015
291.9490             -0.0015
291.9870             -0.0018
292.0239             -0.0018
292.0645             -0.0018
292.1049             -0.0021
292.1437             -0.0021
292.1830             -0.0018
292.2200             -0.0018
292.2645             -0.0014
292.3046             -0.0019
292.3425             -0.0023
292.3833             -0.0023
292.4233             -0.0022
292.4642             -0.0015
292.5047             -0.0022
292.5435             -0.0018
292.5822             -0.0018
292.6230             -0.0014
292.6642             -0.0014
292.7047             -0.0024
292.7459             -0.0024
292.7843             -0.0017
292.8286             -0.0012
292.8678             -0.0011
292.9039             -0.0011
292.9408             -0.0020
292.9794             -0.0020
293.0167             -0.0013
293.0548             -0.0013
293.0951             -0.0013
293.1349             -0.0013
293.1742             -0.0012
293.2128             -0.0012
293.2540             -0.0011
293.2948             -0.0011
293.3326             -0.0011
293.3724             -0.0011
293.4157             -0.0016
293.4558             -0.0009
293.4955             -0.0009
293.5356             -0.0009
293.5761             -0.0011
293.6180             -0.0013
293.6573             -0.0011
293.6959             -0.0013
293.7394             -0.0012
293.7809             -0.0013
293.8228             -0.0015
293.8626             -0.0015
293.8972             -0.0015
293.9340             -0.0020
293.9758             -0.0020
294.0183             -0.0020
294.0574             -0.0020
294.0979             -0.0022
294.1420             -0.0024
294.1859             -0.0024
294.2300             -0.0019
294.2682             -0.0016
294.3016             -0.0016
294.3413             -0.0016
294.3840             -0.0019
294.4221             -0.0019
294.4569             -0.0022
294.4968             -0.0017
294.5379             -0.0020
294.5842             -0.0017
294.6280             -0.0019
294.6683             -0.0018
294.7106             -0.0019
294.7519             -0.0018
294.7938             -0.0021
294.8388             -0.0017
294.8763             -0.0022
294.9134             -0.0020
294.9559             -0.0020
294.9986             -0.0020
295.0416             -0.0018
295.0836             -0.0017
295.1243             -0.0017
295.1688             -0.0024
295.2134             -0.0024
295.2528             -0.0024
295.2868             -0.0021
295.3249             -0.0018
295.3663             -0.0018
295.4100             -0.0021
295.4501             -0.0023
295.4915             -0.0021
295.5347             -0.0022
295.5763             -0.0016
295.6195             -0.0020
295.6621             -0.0020
295.7005             -0.0020
295.7388             -0.0021
295.7748             -0.0021
295.8128             -0.0022
295.8531             -0.0022
295.8946             -0.0020
295.9368             -0.0020
295.9769             -0.0020
296.0164             -0.0021
296.0588             -0.0018
296.0991             -0.0018
296.1426             -0.0018
296.1875             -0.0018
296.2278             -0.0018
296.2703             -0.0018
296.3163             -0.0018
296.3575             -0.0025
296.3954             -0.0026
296.4341             -0.0025
296.4789             -0.0022
296.5236             -0.0022
296.5645             -0.0021
296.6023             -0.0021
296.6419             -0.0021
296.6826             -0.0026
296.7262             -0.0027
296.7656             -0.0027
296.8041             -0.0025
296.8473             -0.0024
296.8916             -0.0024
296.9354             -0.0024
296.9736             -0.0027
297.0147             -0.0023
297.0632             -0.0027
297.1052             -0.0023
297.1446             -0.0021
297.1836             -0.0021
297.2238             -0.0021
297.2661             -0.0024
297.3069             -0.0024
297.3474             -0.0023
297.3887             -0.0022
297.4330             -0.0022
297.4754             -0.0023
297.5153             -0.0024
297.5573             -0.0024
297.5980             -0.0024
297.6405             -0.0024
297.6835             -0.0021
297.7225             -0.0021
297.7628             -0.0021
297.8060             -0.0021
297.8489             -0.0025
297.8936             -0.0026
297.9376             -0.0026
297.9787             -0.0026
298.0153             -0.0024
298.0527             -0.0018
298.0935             -0.0017
298.1375             -0.0018
298.1839             -0.0020
298.2309             -0.0021
298.2715             -0.0021
298.3124             -0.0021
298.3520             -0.0020
298.3907             -0.0020
298.4353             -0.0018
298.4789             -0.0020
298.5199             -0.0020
298.5646             -0.0020
298.6093             -0.0020
298.6527             -0.0024
298.6973             -0.0024
298.7400             -0.0025
298.7778             -0.0021
298.8167             -0.0021
298.8598             -0.0021
298.9027             -0.0023
298.9432             -0.0026
298.9846             -0.0023
299.0275             -0.0026
299.0696             -0.0023
299.1121             -0.0019
299.1534             -0.0019
299.1936             -0.0019
299.2390             -0.0019
299.2837             -0.0019
299.3257             -0.0021
299.3715             -0.0022
299.4146             -0.0025
299.4602             -0.0025
299.5018             -0.0019
299.5414             -0.0019
299.5877             -0.0019
299.6330             -0.0020
299.6749             -0.0018
299.7154             -0.0018
299.7567             -0.0018
299.8014             -0.0018
299.8437             -0.0014
299.8890             -0.0014
299.9332             -0.0014
299.9776             -0.0023
300.0229             -0.0023
300.0679             -0.0023
300.1106             -0.0022
300.1541             -0.0022
300.2005             -0.0022
300.2442             -0.0021
300.2832             -0.0021
300.3206             -0.0016
300.3645             -0.0019
300.4121             -0.0015
300.4593             -0.0016
300.5028             -0.0016
300.5459             -0.0025
300.5916             -0.0025
300.6361             -0.0025
300.6742             -0.0023
300.7188             -0.0024
300.7626             -0.0024
300.8045             -0.0024
300.8489             -0.0023
300.8924             -0.0020
300.9361             -0.0018
300.9786             -0.0018
301.0212             -0.0017
301.0665             -0.0017
301.1120             -0.0017
301.1555             -0.0018
301.2000             -0.0023
301.2446             -0.0018
301.2899             -0.0024
301.3369             -0.0024
301.3853             -0.0024
301.4299             -0.0021
301.4712             -0.0021
301.5128             -0.0021
301.5569             -0.0027
301.6016             -0.0021
301.6474             -0.0021
301.6930             -0.0021
301.7314             -0.0021
301.7761             -0.0021
301.8238             -0.0021
301.8701             -0.0015
301.9144             -0.0020
301.9608             -0.0020
302.0036             -0.0020
302.0465             -0.0025
302.0925             -0.0025
302.1342             -0.0024
302.1743             -0.0021
302.2190             -0.0021
302.2629             -0.0019
302.3131             -0.0019
302.3621             -0.0021
302.4080             -0.0021
302.4538             -0.0021
302.5018             -0.0020
302.5509             -0.0020
302.5958             -0.0019
302.6361             -0.0019
302.6797             -0.0019
302.7251             -0.0022
302.7744             -0.0017
302.8208             -0.0015
302.8661             -0.0015
302.9108             -0.0015
302.9563             -0.0020
303.0032             -0.0020
303.0467             -0.0019
303.0874             -0.0016
303.1304             -0.0016
303.1758             -0.0016
303.2233             -0.0022
303.2676             -0.0022
303.3188             -0.0016
303.3643             -0.0015
303.4071             -0.0015
303.4531             -0.0018
303.5011             -0.0015
303.5465             -0.0014
303.5920             -0.0014
303.6346             -0.0016
303.6785             -0.0020
303.7225             -0.0020
303.7657             -0.0020
303.8133             -0.0017
303.8604             -0.0017
303.9046             -0.0017
303.9524             -0.0014
303.9931             -0.0014
304.0516             -0.0014
304.1017             -0.0017
304.1507             -0.0018
304.1950             -0.0018
304.2410             -0.0020
304.2880             -0.0020
304.3355             -0.0019
304.3825             -0.0018
304.4272             -0.0018
304.4719             -0.0017
304.5163             -0.0015
304.5607             -0.0015
304.6084             -0.0018
304.6571             -0.0018
304.7034             -0.0015
304.7478             -0.0015
304.7945             -0.0015
304.8395             -0.0012
304.8855             -0.0012
304.9330             -0.0016
304.9808             -0.0016
305.0284             -0.0013
305.0734             -0.0013
305.1193             -0.0014
305.1673             -0.0017
305.2179             -0.0017
305.2644             -0.0017
305.3091             -0.0015
305.3560             -0.0014
305.4054             -0.0014
305.4549             -0.0019
305.5049             -0.0019
305.5521             -0.0017
305.5960             -0.0011
305.6422             -0.0016
305.6911             -0.0013
305.7368             -0.0014
305.7837             -0.0013
305.8328             -0.0013
305.8838             -0.0013
305.9334             -0.0016
305.9812             -0.0016
306.0287             -0.0010
306.0783             -0.0010
306.1299             -0.0010
306.1808             -0.0010
306.2255             -0.0014
306.2724             -0.0018
306.3236             -0.0014
306.3745             -0.0014
306.4199             -0.0014
306.4628             -0.0014
306.5069             -0.0014
306.5533             -0.0010
306.6030             -0.0013
306.6559             -0.0010
306.7064             -0.0013
306.7556             -0.0008
306.8043             -0.0008
306.8526             -0.0008
306.8968             -0.0011
306.9425             -0.0012
306.9896             -0.0012
307.0392             -0.0012
307.0940             -0.0018
307.1450             -0.0017
307.1897             -0.0008
307.2329             -0.0008
307.2861             -0.0012
307.3401             -0.0011
307.3872             -0.0012
307.4339             -0.0012
307.4839             -0.0012
307.5339             -0.0011
307.5825             -0.0011
307.6326             -0.0007
307.6833             -0.0016
307.7283             -0.0015
307.7754             -0.0016
307.8303             -0.0016
307.8816             -0.0015
307.9284             -0.0005
307.9755             -0.0005
308.0208             -0.0011
308.0693             -0.0011
308.1195             -0.0012
308.1703             -0.0012
308.2194             -0.0013
308.2706             -0.0013
308.3244             -0.0012
308.3744             -0.0011
308.4248             -0.0011
308.4781             -0.0011
308.5254             -0.0010
308.5691             -0.0008
308.6136             -0.0008
308.6627             -0.0008
308.7168             -0.0011
308.7715             -0.0014
308.8242             -0.0014
308.8723             -0.0011
308.9179             -0.0007
308.9669             -0.0007
309.0233             -0.0011
309.0744             -0.0011
309.1198             -0.0009
309.1672             -0.0009
309.2154             -0.0009
309.2638             -0.0011
309.3119             -0.0007
309.3653             -0.0006
309.4187             -0.0006
309.4688             -0.0012
309.5188             -0.0012
309.5675             -0.0010
309.6222             -0.0006
309.6917             -0.0003
309.7401             -0.0006
309.8488             -0.0010
309.9902             -0.0010
310.0399             -0.0010
310.0950             -0.0006
310.1444             -0.0005
310.1938             -0.0001
310.2438             -0.0005
310.2932             -0.0001
310.3361             -0.0009
310.3828             -0.0004
310.4353             -0.0004
310.4865             -0.0004
310.5392             -0.0004
310.5941             -0.0002
310.6468             -0.0005
310.7002             -0.0001
310.7558             -0.0001
310.8116             -0.0001
310.8578             0.0001
310.9081             -0.0005
310.9603             -0.0004
311.0118             -0.0006
311.0651             -0.0009
311.1195             -0.0009
311.1678             -0.0005
311.2187             -0.0000
311.2730             -0.0004
311.3225             -0.0005
311.3736             -0.0007
311.4246             -0.0007
311.4744             -0.0007
311.5262             -0.0007
311.5767             -0.0006
311.6274             -0.0003
311.6777             -0.0003
311.7311             -0.0002
311.7839             -0.0003
311.8365             -0.0003
311.8919             -0.0004
311.9488             -0.0007
312.0046             -0.0007
312.0611             -0.0006
312.1135             -0.0002
312.1680             -0.0003
312.2217             -0.0003
312.2745             -0.0009
312.3223             -0.0009
312.3713             -0.0010
312.4241             -0.0010
312.4765             -0.0010
312.5289             -0.0010
312.5806             -0.0010
312.6333             -0.0005
312.6875             -0.0004
312.7425             -0.0004
312.8010             -0.0004
312.8555             -0.0004
312.9069             -0.0004
312.9582             -0.0004
313.0134             -0.0002
313.0646             -0.0002
313.1186             -0.0002
313.1748             -0.0004
313.2305             -0.0005
313.2803             -0.0005
313.3323             -0.0003
313.3877             -0.0001
313.4435             -0.0001
313.4997             -0.0002
313.5512             -0.0003
313.5978             -0.0003
313.6536             -0.0003
313.7097             -0.0004
313.7664             0.0001
313.8221             -0.0002
313.8748             -0.0001
313.9269             -0.0001
313.9774             0.0000
314.0265             0.0000
314.0804             -0.0004
314.1332             -0.0004
314.1865             -0.0001
314.2418             0.0001
314.3047             0.0001
314.3674             0.0001
314.4259             0.0001
314.4868             -0.0003
314.5406             -0.0003
314.5919             -0.0004
314.6493             -0.0004
314.7036             -0.0004
314.7548             -0.0002
314.8149             0.0001
314.8633             0.0001
314.9958             0.0000
315.1474             -0.0006
315.2001             -0.0006
315.2581             -0.0009
315.3125             -0.0009
315.3700             -0.0007
315.4321             0.0004
315.4859             -0.0006
315.5306             -0.0006
315.5826             -0.0008
315.6388             -0.0008
315.6999             -0.0006
315.7576             -0.0005
315.8115             -0.0005
315.8660             0.0001
315.9216             0.0001
315.9794             0.0001
316.0363             0.0002
316.0944             -0.0002
316.1504             -0.0002
316.2005             -0.0007
316.2535             -0.0007
316.3095             -0.0003
316.3638             -0.0003
316.4185             0.0001
316.4777             -0.0004
316.5285             -0.0006
316.5793             -0.0006
316.6362             0.0003
316.7012             0.0006
316.7573             0.0006
316.8164             0.0005
316.8813             0.0005
316.9407             0.0005
316.9978             0.0006
317.0565             0.0005
317.1123             0.0006
317.1734             0.0005
317.2281             0.0002
317.2828             0.0002
317.3431             0.0002
317.4054             0.0006
317.4616             0.0007
317.5159             0.0008
317.5756             0.0008
317.6297             0.0008
317.6824             0.0010
317.7460             0.0010
317.8061             0.0010
317.8568             0.0008
317.9110             0.0008
317.9753             0.0008
318.0333             0.0011
318.0942             0.0011
318.1573             0.0010
318.2134             0.0006
318.2645             0.0006
318.3170             0.0006
318.3771             0.0007
318.4446             0.0008
318.5043             0.0007
318.5590             0.0007
318.6189             0.0007
318.6768             0.0007
318.7326             0.0013
318.7901             0.0005
318.8503             0.0006
318.9095             0.0006
318.9689             0.0008
319.0309             0.0008
319.0918             0.0005
319.1500             0.0005
319.2045             0.0006
319.2629             0.0007
319.3227             0.0006
319.3849             0.0007
319.4454             0.0003
319.5101             0.0007
319.5718             0.0007
319.6312             0.0007
319.6900             0.0006
319.7460             0.0005
319.8073             0.0003
319.8664             0.0005
319.9233             0.0008
319.9854             0.0008
320.0495             0.0002
320.1116             0.0002
320.1732             0.0001
320.2361             0.0005
320.2965             0.0005
320.3541             0.0005
320.4154             0.0005
320.4788             0.0004
320.5370             0.0002
320.5997             0.0001
320.6602             -0.0002
320.7157             -0.0002
320.7744             0.0002
320.8343             0.0002
320.8958             0.0006
320.9571             0.0006
321.0187             0.0006
321.0835             0.0006
321.1484             0.0004
321.2138             0.0004
321.2800             0.0000
321.3435             0.0000
321.4048             0.0001
321.4626             0.0002
321.5184             0.0002
321.5737             0.0002
321.6316             0.0002
321.6916             0.0003
321.7581             0.0003
321.8247             0.0003
321.8813             0.0003
321.9399             0.0003
322.0037             0.0002
322.0689             0.0002
322.1368             -0.0003
322.1986             -0.0001
322.2601             -0.0001
322.3187             -0.0001
322.3805             0.0003
322.4455             0.0003
322.5105             0.0003
322.5777             0.0003
322.6416             -0.0002
322.7017             0.0002
322.7617             0.0002
322.8230             0.0002
322.8873             0.0001
322.9549             0.0001
323.0195             0.0001
323.0902             0.0002
323.1599             0.0002
323.2213             0.0002
323.2881             -0.0001
323.3491             -0.0001
323.4052             -0.0002
323.4620             -0.0002
323.5276             -0.0005
323.5941             -0.0005
323.6588             -0.0005
323.7240             0.0002
323.7904             -0.0001
323.8546             0.0001
323.9213             0.0001
323.9889             0.0001
324.0493             -0.0002
324.1098             -0.0003
324.1777             -0.0002
324.2439             0.0002
324.3101             0.0002
324.3782             0.0002
324.4477             0.0000
324.5184             0.0000
324.5839             -0.0002
324.6562             -0.0005
324.7244             -0.0002
324.7772             0.0000
324.8346             0.0000
324.9052             -0.0000
324.9733             -0.0004
325.0423             -0.0004
325.1078             -0.0006
325.1693             -0.0006
325.2324             -0.0004
325.3029             -0.0000
325.3753             -0.0001
325.4430             -0.0001
325.5115             -0.0007
325.5851             -0.0007
325.6553             -0.0006
325.7274             -0.0006
325.8008             -0.0006
325.8631             -0.0004
325.9230             -0.0004
325.9927             -0.0006
326.0655             -0.0006
326.1380             -0.0008
326.2053             -0.0006
326.2716             -0.0002
326.3425             -0.0002
326.4072             -0.0000
326.4673             -0.0004
326.5367             -0.0004
326.6086             -0.0004
326.6830             -0.0004
326.7514             -0.0004
326.8218             -0.0004
326.9006             -0.0002
326.9758             -0.0002
327.0453             -0.0005
327.1115             -0.0008
327.1753             -0.0009
327.2451             -0.0008
327.3143             -0.0006
327.3795             -0.0005
327.4514             -0.0004
327.5232             -0.0005
327.5963             -0.0005
327.6685             -0.0013
327.7344             -0.0005
327.8043             -0.0004
327.8725             -0.0003
327.9420             -0.0003
328.0131             -0.0008
328.0821             -0.0008
328.1540             -0.0005
328.2341             -0.0005
328.3050             -0.0004
328.3792             -0.0002
328.4539             -0.0002
328.5321             -0.0002
328.6042             0.0001
328.6740             0.0004
328.7494             0.0004
328.8237             -0.0003
328.8973             -0.0007
328.9724             -0.0007
329.0506             -0.0007
329.1279             -0.0004
329.2072             -0.0004
329.2820             -0.0005
329.3536             -0.0005
329.4250             -0.0005
329.4946             -0.0004
329.5718             -0.0008
329.6448             -0.0004
329.7201             -0.0005
329.7941             -0.0003
329.8657             -0.0002
329.9411             -0.0002
330.0164             -0.0007
330.0901             -0.0008
330.1696             -0.0009
330.2509             -0.0011
330.3297             -0.0011
330.4082             -0.0011
330.4885             -0.0008
330.5719             -0.0006
330.6537             -0.0004
330.7248             -0.0003
330.7951             -0.0003
330.8603             -0.0003
330.9376             -0.0006
331.0221             -0.0007
331.1012             -0.0007
331.1770             -0.0007
331.2538             -0.0004
331.3317             -0.0007
331.4153             -0.0005
331.4995             -0.0010
331.5785             -0.0006
331.6579             -0.0010
331.7369             -0.0012
331.8148             -0.0012
331.8978             -0.0012
331.9787             -0.0010
332.0595             -0.0007
332.1437             -0.0007
332.2328             -0.0007
332.3156             -0.0011
332.3907             -0.0011
332.4729             -0.0011
332.5591             -0.0008
332.6458             -0.0013
332.7341             -0.0008
332.8130             -0.0010
332.8988             -0.0010
332.9945             -0.0010
333.0800             -0.0008
333.1649             -0.0008
333.2540             -0.0008
333.3341             -0.0015
333.4216             -0.0015
333.5045             -0.0015
333.5821             -0.0011
333.6620             -0.0011
333.7413             -0.0009
333.8199             -0.0011
333.9109             -0.0011
334.0070             -0.0013
334.1038             -0.0014
334.1948             -0.0014
334.2759             -0.0013
334.3603             -0.0011
334.4426             -0.0010
334.5308             -0.0010
334.6213             -0.0011
334.7134             -0.0012
334.8048             -0.0014
334.8949             -0.0014
334.9864             -0.0013
335.0683             -0.0006
335.1526             -0.0004
335.2437             -0.0004
335.3354             -0.0013
335.4302             -0.0015
335.5242             -0.0013
335.6157             -0.0013
335.7236             -0.0012
335.8197             -0.0012
335.9053             -0.0009
335.9967             -0.0009
336.0902             -0.0014
336.1818             -0.0015
336.2759             -0.0014
336.3712             -0.0013
336.4613             -0.0011
336.5499             -0.0011
336.6462             -0.0015
336.7469             -0.0015
336.8421             -0.0015
336.9407             -0.0015
337.0479             -0.0015
337.1443             -0.0015
337.2390             -0.0015
337.3315             -0.0013
337.4173             -0.0013
337.5189             -0.0017
337.6277             -0.0017
337.7264             -0.0015
337.8176             -0.0009
337.9011             -0.0009
338.0028             -0.0013
338.1017             -0.0016
338.1986             -0.0013
338.2966             -0.0016
338.3930             -0.0010
338.4934             -0.0015
338.5926             -0.0015
338.6903             -0.0017
338.7971             -0.0017
338.8910             -0.0016
338.9902             -0.0015
339.1094             -0.0016
339.2295             -0.0016
339.3272             -0.0016
339.4742             -0.0015
339.5965             -0.0011
339.7147             -0.0011
339.8241             -0.0010
339.9485             -0.0009
340.0841             -0.0009
340.2133             -0.0011
340.3274             -0.0011
340.4417             -0.0011
340.5600             -0.0006
340.6845             -0.0006
340.8103             -0.0006
340.9186             -0.0010
341.0287             -0.0010
341.1385             -0.0013
341.2524             -0.0010
341.3631             -0.0010
341.4781             -0.0010
341.6028             -0.0007
341.7196             -0.0008
341.8372             -0.0008
341.9610             -0.0008
342.0911             -0.0013
342.2286             -0.0011
342.3545             -0.0011
342.4731             -0.0011
342.5926             -0.0011
342.7242             -0.0012
342.8539             -0.0012
342.9901             -0.0011
343.1163             -0.0013
343.2383             -0.0013
343.3716             -0.0012
343.5076             -0.0010
343.6422             -0.0010
343.7765             -0.0009
343.9112             -0.0011
344.0573             -0.0007
344.1909             -0.0011
344.3230             -0.0010
344.4632             -0.0012
344.6195             -0.0015
344.7677             -0.0014
344.8983             -0.0014
345.0295             -0.0013
345.1593             -0.0013
345.3085             -0.0013
345.4732             -0.0014
345.6277             -0.0014
345.7606             -0.0014
345.9071             -0.0011
346.0715             -0.0012
346.2321             -0.0012
346.3978             -0.0017
346.5581             -0.0017
346.7120             -0.0008
346.8431             -0.0008
347.0038             -0.0013
347.1879             -0.0013
347.3818             -0.0013
347.6329             -0.0013
347.8082             -0.0016
348.2421             -0.0024
348.4230             -0.0028
348.6171             -0.0030
348.7905             -0.0030
348.9558             -0.0021
349.1151             -0.0020
349.2691             -0.0019
349.4247             -0.0017
349.5427             -0.0017
349.6133             -0.0014
349.8846             NaN
349.9328             NaN
349.9329             NaN
349.9476             NaN
